Time,FZ,C3,CZ,C4,PZ,PO7,OZ,PO8,AccX,AccY,AccZ,Gyro1,Gyro2,Gyro3,Battery,Counter,Validation
529037.7042306,-750000.125,44360.52734375,-750000.125,-228161.609375,44807.91796875,45021.95703125,-750000.125,-750000.125,-0.355712890625,0.932861328125,-0.083984375,0.6408690810203552,2.593993902206421,-0.03051757626235485,73.33333587646484,831985.0,1.0
529037.7085317,-750000.125,44568.93359375,-750000.125,-228215.703125,44760.44140625,45117.71484375,-750000.125,-750000.125,-0.35400390625,0.93310546875,-0.083984375,0.7019042372703552,2.624511480331421,-0.0610351525247097,73.33333587646484,831986.0,1.0
529037.7085602,-750000.125,40688.671875,-750000.125,-227754.09375,43042.48828125,44185.82421875,-750000.125,-750000.125,-0.3525390625,0.932861328125,-0.083740234375,0.6103515028953552,2.532958745956421,0.03051757626235485,73.33333587646484,831987.0,1.0
529037.7143059,-750000.125,35293.2265625,-750000.125,-227424.09375,42201.52734375,43144.94921875,-750000.125,-750000.125,-0.353759765625,0.933837890625,-0.08251953125,0.6103515028953552,2.532958745956421,0.03051757626235485,73.33333587646484,831988.0,1.0
529037.7169577,-750000.125,40339.1796875,-750000.125,-227689.09375,43791.80859375,44637.59765625,-750000.125,-750000.125,-0.354736328125,0.93212890625,-0.08349609375,0.6103515028953552,2.532958745956421,-0.0915527269244194,73.33333587646484,831989.0,1.0
529037.7454078,-750000.125,44649.30859375,-750000.125,-228194.953125,45138.27734375,45293.7578125,-750000.125,-750000.125,-0.353271484375,0.932373046875,-0.083251953125,0.5798339247703552,2.532958745956421,0.0,73.33333587646484,831990.0,1.0
529037.7484965,-750000.125,44852.890625,-750000.125,-228252.1875,45131.75,45396.3046875,-750000.125,-750000.125,-0.3544921875,0.93212890625,-0.082763671875,0.6103515028953552,2.471923589706421,0.0915527269244194,73.33333587646484,831991.0,1.0
529037.7485148,-750000.125,41109.15234375,-750000.125,-227788.875,43617.28515625,44595.3984375,-750000.125,-750000.125,-0.351806640625,0.932373046875,-0.087158203125,0.5493163466453552,2.410888433456421,0.1525878757238388,73.33333587646484,831992.0,1.0
529037.7504572,-750000.125,35782.10546875,-750000.125,-227457.984375,42786.78515625,43642.9453125,-750000.125,-750000.125,-0.35205078125,0.931396484375,-0.08447265625,0.6103515028953552,2.380370855331421,0.03051757626235485,73.33333587646484,831993.0,1.0
529037.7530165,-750000.125,40758.9453125,-750000.125,-227723.703125,44289.625,44978.05859375,-750000.125,-750000.125,-0.35302734375,0.930908203125,-0.081787109375,0.7019042372703552,2.502441167831421,-0.0915527269244194,73.33333587646484,831994.0,1.0
529037.7579546,-750000.125,44931.74609375,-750000.125,-228226.515625,45442.08203125,45561.3515625,-750000.125,-750000.125,-0.35302734375,0.929931640625,-0.080810546875,0.7629393935203552,2.502441167831421,-0.1525878757238388,73.33333587646484,831995.0,1.0
529037.7604364,-750000.125,45127.546875,-750000.125,-228280.703125,45468.81640625,45664.79296875,-750000.125,-750000.125,-0.3515625,0.929931640625,-0.0810546875,0.7934569716453552,2.502441167831421,-0.3051757514476776,73.33333587646484,831996.0,1.0
529037.7629184,-750000.125,41524.26953125,-750000.125,-227818.46875,44168.66015625,44988.609375,-750000.125,-750000.125,-0.3515625,0.929931640625,-0.0810546875,0.8544921278953552,2.471923589706421,-0.3051757514476776,73.33333587646484,831997.0,1.0
529037.7654346,-750000.125,36276.703125,-750000.125,-227487.296875,43359.2578125,44132.984375,-750000.125,-750000.125,-0.353515625,0.930419921875,-0.0859375,0.8544921278953552,2.593993902206421,-0.3662109076976776,73.33333587646484,831998.0,1.0
529037.7679053,-750000.125,41180.765625,-750000.125,-227753.921875,44758.74609375,45311.63671875,-750000.125,-750000.125,-0.353515625,0.9306640625,-0.087158203125,0.9155272841453552,2.593993902206421,-0.3967284858226776,73.33333587646484,831999.0,1.0
529037.770539,-750000.125,45215.703125,-750000.125,-228256.828125,45733.01171875,45830.2890625,-750000.125,-750000.125,-0.355712890625,0.9326171875,-0.08740234375,0.8239745497703552,2.624511480331421,-0.3662109076976776,73.33333587646484,832000.0,1.0
529037.7729167,-750000.125,45407.5703125,-750000.125,-228313.421875,45791.9296875,45939.09375,-750000.125,-750000.125,-0.35546875,0.933349609375,-0.085693359375,0.8850097060203552,2.624511480331421,-0.4272460639476776,73.33333587646484,832001.0,1.0
529037.7760324,-750000.125,41936.8828125,-750000.125,-227852.359375,44701.61328125,45376.1875,-750000.125,-750000.125,-0.355224609375,0.93408203125,-0.087646484375,0.9460448622703552,2.655029058456421,-0.2136230319738388,73.33333587646484,832002.0,1.0
529037.7760598,-750000.125,36770.6796875,-750000.125,-227520.46875,43920.10546875,44615.6953125,-750000.125,-750000.125,-0.353515625,0.930908203125,-0.0849609375,0.8544921278953552,2.624511480331421,-0.0610351525247097,73.33333587646484,832003.0,1.0
529037.7779194,-750000.125,41592.93359375,-750000.125,-227786.734375,45193.3515625,45636.36328125,-750000.125,-750000.125,-0.35400390625,0.931640625,-0.083251953125,0.8239745497703552,2.502441167831421,-0.0915527269244194,73.33333587646484,832004.0,1.0
529037.7816658,-750000.125,45494.20703125,-750000.125,-228286.6875,46011.06640625,46095.19921875,-750000.125,-750000.125,-0.356689453125,0.933349609375,-0.0849609375,0.7324218153953552,2.471923589706421,0.0610351525247097,73.33333587646484,832005.0,1.0
529037.7904614,-750000.125,45677.40234375,-750000.125,-228340.78125,46087.8671875,46202.21875,-750000.125,-750000.125,-0.35400390625,0.932861328125,-0.083740234375,0.7019042372703552,2.471923589706421,0.1525878757238388,73.33333587646484,832006.0,1.0
529037.7947395,-750000.125,42321.15234375,-750000.125,-227881.328125,45189.86328125,45734.890625,-750000.125,-750000.125,-0.353515625,0.93359375,-0.083984375,0.6408690810203552,2.380370855331421,0.0610351525247097,73.33333587646484,832007.0,1.0
529037.7947563,-750000.125,37232.734375,-750000.125,-227551.140625,44449.39453125,45070.1484375,-750000.125,-750000.125,-0.354248046875,0.931884765625,-0.083984375,0.4882812201976776,2.471923589706421,0.0915527269244194,73.33333587646484,832008.0,1.0
529037.7967756,-750000.125,41996.16015625,-750000.125,-227819.265625,45593.5390625,45950.359375,-750000.125,-750000.125,-0.35400390625,0.93017578125,-0.084716796875,0.4882812201976776,2.380370855331421,-0.03051757626235485,73.33333587646484,832009.0,1.0
529037.8086868,-750000.125,45772.7109375,-750000.125,-228319.765625,46284.5625,46360.828125,-750000.125,-750000.125,-0.354248046875,0.929443359375,-0.084228515625,0.4882812201976776,2.410888433456421,-0.03051757626235485,73.33333587646484,832010.0,1.0
529037.808708,-750000.125,45953.04296875,-750000.125,-228375.296875,46377.45703125,46471.3359375,-750000.125,-750000.125,-0.351318359375,0.930419921875,-0.08349609375,0.5493163466453552,2.502441167831421,-0.0915527269244194,73.33333587646484,832011.0,1.0
529037.811125,-750000.125,42716.95703125,-750000.125,-227916.1875,45652.09765625,46090.28125,-750000.125,-750000.125,-0.35302734375,0.928955078125,-0.082275390625,0.6103515028953552,2.441406011581421,-0.0915527269244194,73.33333587646484,832012.0,1.0
529037.811146,-750000.125,37712.66796875,-750000.125,-227584.578125,44964.6484375,45519.41796875,-750000.125,-750000.125,-0.353515625,0.928466796875,-0.081298828125,0.6408690810203552,2.441406011581421,-0.1220703050494194,73.33333587646484,832013.0,1.0
529037.8169005,-750000.125,42403.31640625,-750000.125,-227852.4375,45970.56640625,46258.90625,-750000.125,-750000.125,-0.35205078125,0.929931640625,-0.081298828125,0.7324218153953552,2.532958745956421,-0.0915527269244194,73.33333587646484,832014.0,1.0
529037.8194985,-750000.125,46052.46484375,-750000.125,-228353.484375,46554.75390625,46627.70703125,-750000.125,-750000.125,-0.353515625,0.93212890625,-0.081298828125,0.7934569716453552,2.532958745956421,-0.03051757626235485,73.33333587646484,832015.0,1.0
529037.8305525,-750000.125,46227.61328125,-750000.125,-228410.34375,46657.30078125,46739.19921875,-750000.125,-750000.125,-0.354736328125,0.93212890625,-0.08349609375,0.7934569716453552,2.532958745956421,-0.1220703050494194,73.33333587646484,832016.0,1.0
529037.8405204,-750000.125,43117.5,-750000.125,-227948.828125,46086.6171875,46432.265625,-750000.125,-750000.125,-0.35205078125,0.931884765625,-0.080322265625,0.8850097060203552,2.593993902206421,-0.03051757626235485,73.33333587646484,832017.0,1.0
529037.8405464,-750000.125,38192.515625,-750000.125,-227616.40625,45466.40234375,45955.01171875,-750000.125,-750000.125,-0.3525390625,0.931396484375,-0.082763671875,0.8239745497703552,2.563476324081421,-0.1220703050494194,73.33333587646484,832018.0,1.0
529037.8405508,-750000.125,42804.57421875,-750000.125,-227884.453125,46328.55078125,46560.20703125,-750000.125,-750000.125,-0.35009765625,0.932861328125,-0.08251953125,0.7934569716453552,2.502441167831421,-0.2746581733226776,73.33333587646484,832019.0,1.0
529037.8429077,-750000.125,46326.40625,-750000.125,-228384.5,46819.3984375,46890.02734375,-750000.125,-750000.125,-0.3505859375,0.931884765625,-0.08349609375,0.8239745497703552,2.563476324081421,-0.3051757514476776,73.33333587646484,832020.0,1.0
529037.8455431,-750000.125,46495.83203125,-750000.125,-228440.03125,46925.96875,47001.16015625,-750000.125,-750000.125,-0.353271484375,0.931640625,-0.084716796875,0.7934569716453552,2.471923589706421,-0.3051757514476776,73.33333587646484,832021.0,1.0
529037.8517307,-750000.125,43503.73828125,-750000.125,-227980.46875,46487.33984375,46758.6015625,-750000.125,-750000.125,-0.352783203125,0.932373046875,-0.086181640625,0.7629393935203552,2.502441167831421,-0.2441406100988388,73.33333587646484,832022.0,1.0
529037.8610118,-750000.125,38663.87109375,-750000.125,-227650.46875,45949.64453125,46377.01171875,-750000.125,-750000.125,-0.35302734375,0.9326171875,-0.087890625,0.6713866591453552,2.502441167831421,-0.1220703050494194,73.33333587646484,832023.0,1.0
529037.8610398,-750000.125,43193.31640625,-750000.125,-227918.875,46671.4296875,46859.44921875,-750000.125,-750000.125,-0.35546875,0.93310546875,-0.08544921875,0.6713866591453552,2.563476324081421,-0.3051757514476776,73.33333587646484,832024.0,1.0
529037.8674839,-750000.125,46603.03125,-750000.125,-228417.9375,47086.45703125,47156.015625,-750000.125,-750000.125,-0.355224609375,0.93115234375,-0.085205078125,0.7019042372703552,2.563476324081421,-0.2136230319738388,73.33333587646484,832025.0,1.0
529037.8674986,-750000.125,46767.36328125,-750000.125,-228472.125,47194.81640625,47266.609375,-750000.125,-750000.125,-0.354248046875,0.931640625,-0.082275390625,0.6408690810203552,2.563476324081421,-0.2136230319738388,73.33333587646484,832026.0,1.0
529037.8700354,-750000.125,43886.3125,-750000.125,-228014.0,46865.26171875,47078.85546875,-750000.125,-750000.125,-0.355712890625,0.93115234375,-0.0849609375,0.6408690810203552,2.532958745956421,-0.3662109076976776,73.33333587646484,832027.0,1.0
529037.8700499,-750000.125,39134.8671875,-750000.125,-227682.84375,46416.88671875,46786.13671875,-750000.125,-750000.125,-0.3544921875,0.9306640625,-0.083740234375,0.7019042372703552,2.532958745956421,-0.1220703050494194,73.33333587646484,832028.0,1.0
529037.8968411,-750000.125,43582.953125,-750000.125,-227951.0625,46998.30078125,47151.453125,-750000.125,-750000.125,-0.354736328125,0.93115234375,-0.0830078125,0.7934569716453552,2.471923589706421,-0.03051757626235485,73.33333587646484,832029.0,1.0
529037.8968569,-750000.125,46874.203125,-750000.125,-228448.703125,47348.6875,47417.9765625,-750000.125,-750000.125,-0.3544921875,0.93212890625,-0.08203125,0.7324218153953552,2.593993902206421,0.0610351525247097,73.33333587646484,832030.0,1.0
529037.8968613,-750000.125,47035.76171875,-750000.125,-228504.484375,47459.37109375,47529.5546875,-750000.125,-750000.125,-0.354248046875,0.933349609375,-0.0849609375,0.6713866591453552,2.593993902206421,0.1831054538488388,73.33333587646484,832031.0,1.0
529037.8995272,-750000.125,44262.984375,-750000.125,-228046.015625,47210.73046875,47380.42578125,-750000.125,-750000.125,-0.353515625,0.932373046875,-0.084716796875,0.6103515028953552,2.502441167831421,0.1831054538488388,73.33333587646484,832032.0,1.0
529037.9028825,-750000.125,39598.62109375,-750000.125,-227714.671875,46854.35546875,47169.24609375,-750000.125,-750000.125,-0.353515625,0.93115234375,-0.0859375,0.5798339247703552,2.441406011581421,0.3051757514476776,73.33333587646484,832033.0,1.0
529037.9028966,-750000.125,43971.3359375,-750000.125,-227983.609375,47308.453125,47435.859375,-750000.125,-750000.125,-0.3525390625,0.931884765625,-0.083740234375,0.5187987685203552,2.380370855331421,0.2136230319738388,73.33333587646484,832034.0,1.0
529037.9029008,-750000.125,47147.33984375,-750000.125,-228484.546875,47612.16796875,47681.63671875,-750000.125,-750000.125,-0.3515625,0.931884765625,-0.084716796875,0.5798339247703552,2.349853277206421,0.0610351525247097,73.33333587646484,832035.0,1.0
529037.905429,-750000.125,47303.984375,-750000.125,-228539.359375,47722.85546875,47792.32421875,-750000.125,-750000.125,-0.3505859375,0.932373046875,-0.082763671875,0.5798339247703552,2.441406011581421,-0.0610351525247097,73.33333587646484,832036.0,1.0
529037.9093072,-750000.125,44631.33984375,-750000.125,-228079.984375,47534.02734375,47672.4296875,-750000.125,-750000.125,-0.350341796875,0.931396484375,-0.08740234375,0.5493163466453552,2.502441167831421,-0.2136230319738388,73.33333587646484,832037.0,1.0
529037.918806,-750000.125,40049.76953125,-750000.125,-227750.34375,47275.73046875,47536.171875,-750000.125,-750000.125,-0.349609375,0.930908203125,-0.0849609375,0.7019042372703552,2.471923589706421,-0.1831054538488388,73.33333587646484,832038.0,1.0
529037.9188217,-750000.125,44346.22265625,-750000.125,-228015.96875,47611.2734375,47715.5234375,-750000.125,-750000.125,-0.353515625,0.931396484375,-0.08544921875,0.7324218153953552,2.502441167831421,-0.2746581733226776,73.33333587646484,832039.0,1.0
529037.9275607,-750000.125,47414.84765625,-750000.125,-228513.34375,47872.07421875,47941.90234375,-750000.125,-750000.125,-0.353271484375,0.929931640625,-0.0849609375,0.7934569716453552,2.471923589706421,-0.3356933295726776,73.33333587646484,832040.0,1.0
529037.927581,-750000.125,47569.07421875,-750000.125,-228568.859375,47983.7421875,48052.9453125,-750000.125,-750000.125,-0.353271484375,0.93115234375,-0.0810546875,0.8239745497703552,2.471923589706421,-0.3051757514476776,73.33333587646484,832041.0,1.0
529037.9298921,-750000.125,45006.9375,-750000.125,-228111.71875,47846.234375,47960.85546875,-750000.125,-750000.125,-0.355224609375,0.930908203125,-0.082763671875,0.8239745497703552,2.532958745956421,-0.3051757514476776,73.33333587646484,832042.0,1.0
529037.9299086,-750000.125,40514.86328125,-750000.125,-227784.21875,47681.01171875,47869.03515625,-750000.125,-750000.125,-0.3544921875,0.9306640625,-0.085205078125,0.8850097060203552,2.593993902206421,-0.1831054538488388,73.33333587646484,832043.0,1.0
529037.9417448,-750000.125,44725.6640625,-750000.125,-228046.984375,47902.02734375,47984.19140625,-750000.125,-750000.125,-0.35400390625,0.93310546875,-0.084228515625,0.8850097060203552,2.593993902206421,-0.1525878757238388,73.33333587646484,832044.0,1.0
529037.9486521,-750000.125,47685.5703125,-750000.125,-228545.609375,48134.39453125,48203.59375,-750000.125,-750000.125,-0.353759765625,0.933837890625,-0.082275390625,0.8850097060203552,2.624511480331421,-0.1525878757238388,73.33333587646484,832045.0,1.0
529037.9486777,-750000.125,47834.078125,-750000.125,-228599.890625,48244.09765625,48313.296875,-750000.125,-750000.125,-0.354736328125,0.933349609375,-0.08349609375,0.8239745497703552,2.563476324081421,-0.1220703050494194,73.33333587646484,832046.0,1.0
529037.9548187,-750000.125,45371.18359375,-750000.125,-228143.46875,48148.34375,48228.71875,-750000.125,-750000.125,-0.35400390625,0.931396484375,-0.085205078125,0.7629393935203552,2.593993902206421,-0.2441406100988388,73.33333587646484,832047.0,1.0
529037.9548361,-750000.125,40967.88671875,-750000.125,-227816.328125,48046.6875,48146.1953125,-750000.125,-750000.125,-0.353515625,0.93017578125,-0.081787109375,0.7629393935203552,2.441406011581421,-0.1525878757238388,73.33333587646484,832048.0,1.0
529037.9635566,-750000.125,45095.2734375,-750000.125,-228080.875,48176.59375,48248.38671875,-750000.125,-750000.125,-0.35302734375,0.930908203125,-0.0810546875,0.7629393935203552,2.410888433456421,-0.03051757626235485,73.33333587646484,832049.0,1.0
529037.9635816,-750000.125,47952.36328125,-750000.125,-228578.421875,48394.74609375,48464.6640625,-750000.125,-750000.125,-0.355712890625,0.9326171875,-0.0849609375,0.7019042372703552,2.410888433456421,-0.1220703050494194,73.33333587646484,832050.0,1.0
529037.9660665,-750000.125,48100.0625,-750000.125,-228634.65625,48506.05859375,48575.796875,-750000.125,-750000.125,-0.355712890625,0.931396484375,-0.08447265625,0.5798339247703552,2.410888433456421,-0.1220703050494194,73.33333587646484,832051.0,1.0
529037.9660926,-750000.125,45727.828125,-750000.125,-228179.21875,48424.1640625,48493.09375,-750000.125,-750000.125,-0.35546875,0.9326171875,-0.08544921875,0.4882812201976776,2.410888433456421,-0.03051757626235485,73.33333587646484,832052.0,1.0
529037.9742937,-750000.125,41417.875,-750000.125,-227850.75,48341.1015625,48410.83984375,-750000.125,-750000.125,-0.354736328125,0.93310546875,-0.084228515625,0.5187987685203552,2.441406011581421,0.03051757626235485,73.33333587646484,832053.0,1.0
529037.9786316,-750000.125,45463.359375,-750000.125,-228111.28125,48436.58984375,48505.87890625,-750000.125,-750000.125,-0.35498046875,0.9326171875,-0.083984375,0.6408690810203552,2.502441167831421,0.0610351525247097,73.33333587646484,832054.0,1.0
529037.9786522,-750000.125,48217.54296875,-750000.125,-228610.078125,48653.58203125,48723.140625,-750000.125,-750000.125,-0.35546875,0.93212890625,-0.083251953125,0.7019042372703552,2.563476324081421,0.03051757626235485,73.33333587646484,832055.0,1.0
529037.9843892,-750000.125,48360.68359375,-750000.125,-228664.703125,48763.91015625,48833.19921875,-750000.125,-750000.125,-0.35595703125,0.93359375,-0.08251953125,0.7629393935203552,2.532958745956421,0.0915527269244194,73.33333587646484,832056.0,1.0
529037.9905137,-750000.125,46086.52734375,-750000.125,-228209.171875,48681.56640625,48750.41015625,-750000.125,-750000.125,-0.356201171875,0.93115234375,-0.08154296875,0.7934569716453552,2.471923589706421,0.0610351525247097,73.33333587646484,832057.0,1.0
529037.9967064,-750000.125,41861.33203125,-750000.125,-227882.65625,48600.83203125,48669.31640625,-750000.125,-750000.125,-0.3544921875,0.93115234375,-0.08203125,0.7629393935203552,2.563476324081421,0.0,73.33333587646484,832058.0,1.0
529038.001203,-750000.125,45822.95703125,-750000.125,-228145.609375,48697.66015625,48766.58984375,-750000.125,-750000.125,-0.35107421875,0.930419921875,-0.086669921875,0.7324218153953552,2.593993902206421,-0.1220703050494194,73.33333587646484,832059.0,1.0
529038.0012255,-750000.125,48482.3671875,-750000.125,-228642.359375,48912.59375,48981.97265625,-750000.125,-750000.125,-0.353271484375,0.93017578125,-0.08642578125,0.7629393935203552,2.655029058456421,-0.1220703050494194,73.33333587646484,832060.0,1.0
529038.0094221,-750000.125,48623.8984375,-750000.125,-228697.421875,49023.3671875,49092.5703125,-750000.125,-750000.125,-0.353515625,0.930419921875,-0.084228515625,0.7934569716453552,2.593993902206421,-0.0610351525247097,73.33333587646484,832061.0,1.0
529038.0124933,-750000.125,46443.88671875,-750000.125,-228242.796875,48940.93359375,49009.77734375,-750000.125,-750000.125,-0.351806640625,0.931884765625,-0.08349609375,0.7934569716453552,2.563476324081421,-0.0915527269244194,73.33333587646484,832062.0,1.0
529038.0125275,-750000.125,42306.48828125,-750000.125,-227915.109375,48859.21875,48927.8828125,-750000.125,-750000.125,-0.353759765625,0.931640625,-0.083251953125,0.6713866591453552,2.471923589706421,-0.1831054538488388,73.33333587646484,832063.0,1.0
529038.0156243,-750000.125,46177.6328125,-750000.125,-228178.859375,48956.58203125,49025.6015625,-750000.125,-750000.125,-0.354736328125,0.931640625,-0.084228515625,0.8239745497703552,2.441406011581421,-0.1831054538488388,73.33333587646484,832064.0,1.0
529038.0299883,-750000.125,48745.9375,-750000.125,-228674.984375,49171.0703125,49241.25390625,-750000.125,-750000.125,-0.354736328125,0.931884765625,-0.08349609375,0.7934569716453552,2.624511480331421,-0.3051757514476776,73.33333587646484,832065.0,1.0
529038.0300233,-750000.125,48884.7890625,-750000.125,-228728.359375,49280.94921875,49350.328125,-750000.125,-750000.125,-0.35302734375,0.9306640625,-0.082275390625,0.7934569716453552,2.532958745956421,-0.4577636420726776,73.33333587646484,832066.0,1.0
529038.0319186,-750000.125,46790.4296875,-750000.125,-228273.375,49200.125,49268.5234375,-750000.125,-750000.125,-0.353271484375,0.932861328125,-0.083984375,0.8850097060203552,2.532958745956421,-0.4577636420726776,73.33333587646484,832067.0,1.0
529038.034229,-750000.125,42753.79296875,-750000.125,-227946.765625,49120.1953125,49188.4140625,-750000.125,-750000.125,-0.354248046875,0.9306640625,-0.082275390625,0.8850097060203552,2.471923589706421,-0.4577636420726776,73.33333587646484,832068.0,1.0
529038.0367304,-750000.125,46541.1640625,-750000.125,-228208.546875,49214.87890625,49284.2578125,-750000.125,-750000.125,-0.355712890625,0.9306640625,-0.08349609375,0.9155272841453552,2.532958745956421,-0.2746581733226776,73.33333587646484,832069.0,1.0
529038.0468713,-750000.125,49009.51171875,-750000.125,-228705.203125,49429.0078125,49499.55078125,-750000.125,-750000.125,-0.355224609375,0.931396484375,-0.0810546875,0.8544921278953552,2.563476324081421,-0.3051757514476776,73.33333587646484,832070.0,1.0
529038.0500777,-750000.125,49145.9453125,-750000.125,-228760.375,49539.24609375,49609.609375,-750000.125,-750000.125,-0.354736328125,0.931884765625,-0.084228515625,0.8239745497703552,2.655029058456421,-0.1220703050494194,73.33333587646484,832071.0,1.0
529038.0501111,-750000.125,47134.37890625,-750000.125,-228303.59375,49455.828125,49525.2109375,-750000.125,-750000.125,-0.35302734375,0.93115234375,-0.08447265625,0.7629393935203552,2.563476324081421,-0.0915527269244194,73.33333587646484,832072.0,1.0
529038.0517207,-750000.125,43186.25390625,-750000.125,-227975.5625,49374.203125,49443.1328125,-750000.125,-750000.125,-0.3544921875,0.933349609375,-0.083251953125,0.7934569716453552,2.532958745956421,-0.0610351525247097,73.33333587646484,832073.0,1.0
529038.0605421,-750000.125,46892.53125,-750000.125,-228239.484375,49470.8515625,49540.5,-750000.125,-750000.125,-0.35498046875,0.932373046875,-0.0810546875,0.6713866591453552,2.502441167831421,0.03051757626235485,73.33333587646484,832074.0,1.0
529038.067438,-750000.125,49271.29296875,-750000.125,-228737.75,49685.96484375,49756.41796875,-750000.125,-750000.125,-0.35205078125,0.931640625,-0.080078125,0.6103515028953552,2.380370855331421,0.0610351525247097,73.33333587646484,832075.0,1.0
529038.0674701,-750000.125,49405.671875,-750000.125,-228793.0,49796.29296875,49866.56640625,-750000.125,-750000.125,-0.353271484375,0.9326171875,-0.083251953125,0.5187987685203552,2.380370855331421,0.2746581733226776,73.33333587646484,832076.0,1.0
529038.0692994,-750000.125,47477.1640625,-750000.125,-228338.09375,49714.39453125,49783.5078125,-750000.125,-750000.125,-0.353271484375,0.932861328125,-0.084716796875,0.5493163466453552,2.349853277206421,0.3051757514476776,73.33333587646484,832077.0,1.0
529038.0754937,-750000.125,43620.234375,-750000.125,-228010.953125,49632.5859375,49701.25,-750000.125,-750000.125,-0.3525390625,0.934326171875,-0.083984375,0.6103515028953552,2.410888433456421,0.2441406100988388,73.33333587646484,832078.0,1.0
529038.0823995,-750000.125,47234.87109375,-750000.125,-228274.0,49727.5390625,49797.1875,-750000.125,-750000.125,-0.352294921875,0.93310546875,-0.081298828125,0.5493163466453552,2.380370855331421,0.1220703050494194,73.33333587646484,832079.0,1.0
529038.0824316,-750000.125,49530.3046875,-750000.125,-228771.28125,49941.84765625,50012.296875,-750000.125,-750000.125,-0.352783203125,0.93115234375,-0.083251953125,0.6103515028953552,2.349853277206421,0.03051757626235485,73.33333587646484,832080.0,1.0
529038.0885994,-750000.125,49663.5234375,-750000.125,-228825.8125,50051.99609375,50122.08984375,-750000.125,-750000.125,-0.3544921875,0.93212890625,-0.084228515625,0.5798339247703552,2.441406011581421,-0.0610351525247097,73.33333587646484,832081.0,1.0
529038.0886312,-750000.125,47810.1171875,-750000.125,-228369.296875,49969.29296875,50038.76171875,-750000.125,-750000.125,-0.353271484375,0.930908203125,-0.083740234375,0.7324218153953552,2.441406011581421,-0.0915527269244194,73.33333587646484,832082.0,1.0
529038.0905281,-750000.125,44050.10546875,-750000.125,-228043.953125,49889.54296875,49958.65625,-750000.125,-750000.125,-0.351806640625,0.932373046875,-0.083740234375,0.7934569716453552,2.502441167831421,-0.2441406100988388,73.33333587646484,832083.0,1.0
529038.1019034,-750000.125,47586.95703125,-750000.125,-228309.3125,49987.17578125,50057.00390625,-750000.125,-750000.125,-0.3525390625,0.932861328125,-0.084716796875,0.7629393935203552,2.532958745956421,-0.3356933295726776,73.33333587646484,832084.0,1.0
529038.1048145,-750000.125,49794.4140625,-750000.125,-228806.234375,50201.9296875,50272.5625,-750000.125,-750000.125,-0.3525390625,0.93212890625,-0.083740234375,0.7934569716453552,2.563476324081421,-0.2746581733226776,73.33333587646484,832085.0,1.0
529038.1048487,-750000.125,49925.21484375,-750000.125,-228859.796875,50312.08203125,50382.35546875,-750000.125,-750000.125,-0.353271484375,0.931396484375,-0.083740234375,0.9155272841453552,2.624511480331421,-0.3967284858226776,73.33333587646484,832086.0,1.0
529038.1132933,-750000.125,48153.08203125,-750000.125,-228402.5625,50228.75390625,50297.953125,-750000.125,-750000.125,-0.35302734375,0.931396484375,-0.083251953125,0.8850097060203552,2.624511480331421,-0.2746581733226776,73.33333587646484,832087.0,1.0
529038.1163073,-750000.125,44487.125,-750000.125,-228075.15625,50146.67578125,50215.1640625,-750000.125,-750000.125,-0.35302734375,0.932373046875,-0.084716796875,0.8850097060203552,2.532958745956421,-0.2746581733226776,73.33333587646484,832088.0,1.0
529038.1163416,-750000.125,47932.6015625,-750000.125,-228340.34375,50243.1484375,50312.52734375,-750000.125,-750000.125,-0.35302734375,0.93212890625,-0.084716796875,0.9155272841453552,2.563476324081421,-0.1525878757238388,73.33333587646484,832089.0,1.0
529038.1183005,-750000.125,50053.6953125,-750000.125,-228837.53125,50458.08203125,50528.265625,-750000.125,-750000.125,-0.353515625,0.93212890625,-0.08251953125,0.7019042372703552,2.563476324081421,-0.2746581733226776,73.33333587646484,832090.0,1.0
529038.1217189,-750000.125,50180.47265625,-750000.125,-228889.203125,50565.37109375,50635.46484375,-750000.125,-750000.125,-0.353759765625,0.932861328125,-0.08251953125,0.7324218153953552,2.593993902206421,-0.1525878757238388,73.33333587646484,832091.0,1.0
529038.130666,-750000.125,48479.86328125,-750000.125,-228432.6875,50482.40234375,50551.87109375,-750000.125,-750000.125,-0.35498046875,0.93017578125,-0.084228515625,0.7629393935203552,2.502441167831421,-0.2136230319738388,73.33333587646484,832092.0,1.0
529038.1331509,-750000.125,44905.640625,-750000.125,-228107.703125,50402.73828125,50472.1171875,-750000.125,-750000.125,-0.35205078125,0.93115234375,-0.083984375,0.7019042372703552,2.563476324081421,-0.0610351525247097,73.33333587646484,832093.0,1.0
529038.1369659,-750000.125,48270.73828125,-750000.125,-228371.09375,50497.8671875,50568.23046875,-750000.125,-750000.125,-0.353271484375,0.929931640625,-0.0830078125,0.7324218153953552,2.471923589706421,-0.03051757626235485,73.33333587646484,832094.0,1.0
529038.1561437,-750000.125,50312.16796875,-750000.125,-228868.546875,50712.4453125,50783.96875,-750000.125,-750000.125,-0.353759765625,0.931884765625,-0.08544921875,0.6408690810203552,2.410888433456421,0.03051757626235485,73.33333587646484,832095.0,1.0
529038.1561736,-750000.125,50437.33984375,-750000.125,-228920.40625,50820.359375,50891.8828125,-750000.125,-750000.125,-0.354248046875,0.93115234375,-0.08154296875,0.6713866591453552,2.502441167831421,0.0915527269244194,73.33333587646484,832096.0,1.0
529038.1588935,-750000.125,48813.53125,-750000.125,-228462.734375,50736.67578125,50807.0390625,-750000.125,-750000.125,-0.35498046875,0.929931640625,-0.083740234375,0.6408690810203552,2.471923589706421,0.0610351525247097,73.33333587646484,832097.0,1.0
529038.1589253,-750000.125,45334.79296875,-750000.125,-228138.546875,50657.4609375,50727.28515625,-750000.125,-750000.125,-0.353515625,0.9326171875,-0.083740234375,0.6103515028953552,2.502441167831421,0.0915527269244194,73.33333587646484,832098.0,1.0
529038.1604691,-750000.125,48608.4296875,-750000.125,-228404.34375,50754.19921875,50824.29296875,-750000.125,-750000.125,-0.353515625,0.933349609375,-0.085205078125,0.5493163466453552,2.441406011581421,0.03051757626235485,73.33333587646484,832099.0,1.0
529038.1631949,-750000.125,50569.39453125,-750000.125,-228901.1875,50966.80859375,51038.2421875,-750000.125,-750000.125,-0.353759765625,0.934814453125,-0.085205078125,0.6103515028953552,2.410888433456421,0.1525878757238388,73.33333587646484,832100.0,1.0
529038.1657052,-750000.125,50692.5078125,-750000.125,-228952.6875,51073.91796875,51145.265625,-750000.125,-750000.125,-0.3515625,0.935302734375,-0.08349609375,0.7324218153953552,2.471923589706421,0.1525878757238388,73.33333587646484,832101.0,1.0
529038.171797,-750000.125,49130.38671875,-750000.125,-228496.4375,50990.5,51060.41796875,-750000.125,-750000.125,-0.350341796875,0.93310546875,-0.083740234375,0.7019042372703552,2.563476324081421,0.0610351525247097,73.33333587646484,832102.0,1.0
529038.1764218,-750000.125,45737.66015625,-750000.125,-228174.03125,50911.734375,50981.11328125,-750000.125,-750000.125,-0.35205078125,0.932373046875,-0.084228515625,0.7019042372703552,2.655029058456421,0.0610351525247097,73.33333587646484,832103.0,1.0
529038.1764543,-750000.125,48933.42578125,-750000.125,-228438.859375,51006.7734375,51077.2265625,-750000.125,-750000.125,-0.352783203125,0.931640625,-0.083984375,0.7324218153953552,2.471923589706421,-0.03051757626235485,73.33333587646484,832104.0,1.0
529038.1818421,-750000.125,50822.953125,-750000.125,-228933.28125,51217.953125,51289.296875,-750000.125,-750000.125,-0.351806640625,0.93115234375,-0.085205078125,0.7629393935203552,2.441406011581421,-0.1831054538488388,73.33333587646484,832105.0,1.0
529038.1913014,-750000.125,50944.546875,-750000.125,-228983.171875,51324.703125,51395.9609375,-750000.125,-750000.125,-0.3525390625,0.9296875,-0.083984375,0.8239745497703552,2.471923589706421,-0.3662109076976776,73.33333587646484,832106.0,1.0
529038.1913328,-750000.125,49455.203125,-750000.125,-228526.03125,51242.44921875,51312.3671875,-750000.125,-750000.125,-0.351806640625,0.93017578125,-0.085205078125,0.8850097060203552,2.593993902206421,-0.3356933295726776,73.33333587646484,832107.0,1.0
529038.1932654,-750000.125,46167.171875,-750000.125,-228202.015625,51162.609375,51232.4375,-750000.125,-750000.125,-0.353271484375,0.93212890625,-0.0830078125,0.8850097060203552,2.624511480331421,-0.4577636420726776,73.33333587646484,832108.0,1.0
529038.1969023,-750000.125,49269.1484375,-750000.125,-228467.828125,51259.34765625,51330.15625,-750000.125,-750000.125,-0.354248046875,0.9326171875,-0.08203125,0.8544921278953552,2.624511480331421,-0.3051757514476776,73.33333587646484,832109.0,1.0
529038.2085989,-750000.125,51079.81640625,-750000.125,-228963.40625,51472.671875,51543.9296875,-750000.125,-750000.125,-0.355712890625,0.931396484375,-0.082275390625,0.9460448622703552,2.563476324081421,-0.4882812201976776,73.33333587646484,832110.0,1.0
529038.2086277,-750000.125,51201.859375,-750000.125,-229014.734375,51581.2109375,51652.203125,-750000.125,-750000.125,-0.355712890625,0.93310546875,-0.083984375,0.8850097060203552,2.563476324081421,-0.4272460639476776,73.33333587646484,832111.0,1.0
529038.2112688,-750000.125,49783.1484375,-750000.125,-228558.484375,51499.2265625,51569.41015625,-750000.125,-750000.125,-0.3544921875,0.9326171875,-0.08740234375,0.7934569716453552,2.532958745956421,-0.2746581733226776,73.33333587646484,832112.0,1.0
529038.2113022,-750000.125,46588.90625,-750000.125,-228233.578125,51417.8671875,51487.78125,-750000.125,-750000.125,-0.35595703125,0.93310546875,-0.0859375,0.9765624403953552,2.593993902206421,-0.03051757626235485,73.33333587646484,832113.0,1.0
529038.2193275,-750000.125,49596.109375,-750000.125,-228497.953125,51512.19140625,51582.8203125,-750000.125,-750000.125,-0.357421875,0.931640625,-0.086669921875,0.7934569716453552,2.593993902206421,0.0610351525247097,73.33333587646484,832114.0,1.0
529038.2217228,-750000.125,51333.82421875,-750000.125,-228993.359375,51724.0859375,51795.51953125,-750000.125,-750000.125,-0.35595703125,0.931640625,-0.083984375,0.6103515028953552,2.532958745956421,0.0,73.33333587646484,832115.0,1.0
529038.2256763,-750000.125,51454.703125,-750000.125,-229046.46875,51832.71484375,51904.23828125,-750000.125,-750000.125,-0.354736328125,0.931396484375,-0.08349609375,0.5798339247703552,2.380370855331421,0.0915527269244194,73.33333587646484,832116.0,1.0
529038.2301457,-750000.125,50100.36328125,-750000.125,-228589.875,51749.921875,51820.375,-750000.125,-750000.125,-0.35498046875,0.932373046875,-0.08544921875,0.5798339247703552,2.410888433456421,0.1831054538488388,73.33333587646484,832117.0,1.0
529038.2301781,-750000.125,46997.49609375,-750000.125,-228266.3125,51669.90234375,51739.73046875,-750000.125,-750000.125,-0.35693359375,0.93310546875,-0.08544921875,0.4882812201976776,2.441406011581421,0.1831054538488388,73.33333587646484,832118.0,1.0
529038.2381216,-750000.125,49916.09765625,-750000.125,-228531.75,51764.765625,51835.84375,-750000.125,-750000.125,-0.355712890625,0.9326171875,-0.0869140625,0.4577636420726776,2.502441167831421,0.1220703050494194,73.33333587646484,832119.0,1.0
529038.2421606,-750000.125,51588.54296875,-750000.125,-229027.703125,51977.10546875,52048.90234375,-750000.125,-750000.125,-0.355224609375,0.933837890625,-0.085205078125,0.4272460639476776,2.441406011581421,0.0,73.33333587646484,832120.0,1.0
529038.2489052,-750000.125,51707.54296875,-750000.125,-229079.109375,52084.39453125,52156.09765625,-750000.125,-750000.125,-0.352783203125,0.932861328125,-0.083251953125,0.4577636420726776,2.441406011581421,-0.03051757626235485,73.33333587646484,832121.0,1.0
529038.2489382,-750000.125,50413.9140625,-750000.125,-228622.6875,52001.6953125,52072.50390625,-750000.125,-750000.125,-0.352783203125,0.931396484375,-0.083251953125,0.5798339247703552,2.441406011581421,-0.0915527269244194,73.33333587646484,832122.0,1.0
529038.2581249,-750000.125,47403.13671875,-750000.125,-228297.78125,51920.421875,51990.78515625,-750000.125,-750000.125,-0.35302734375,0.929443359375,-0.083251953125,0.5493163466453552,2.471923589706421,-0.03051757626235485,73.33333587646484,832123.0,1.0
529038.2611566,-750000.125,50237.515625,-750000.125,-228564.484375,52016.98046875,52088.1484375,-750000.125,-750000.125,-0.353271484375,0.930908203125,-0.083251953125,0.7324218153953552,2.563476324081421,-0.0610351525247097,73.33333587646484,832124.0,1.0
529038.2612022,-750000.125,51842.4609375,-750000.125,-229060.15625,52228.7890625,52301.1171875,-750000.125,-750000.125,-0.35107421875,0.93115234375,-0.081298828125,0.7629393935203552,2.593993902206421,-0.1525878757238388,73.33333587646484,832125.0,1.0
529038.2671605,-750000.125,51960.296875,-750000.125,-229110.75,52336.07421875,52407.95703125,-750000.125,-750000.125,-0.35302734375,0.931396484375,-0.080810546875,0.8544921278953552,2.502441167831421,-0.3356933295726776,73.33333587646484,832126.0,1.0
529038.2712328,-750000.125,50725.05078125,-750000.125,-228654.421875,52254.26953125,52325.078125,-750000.125,-750000.125,-0.352783203125,0.93359375,-0.081298828125,0.8239745497703552,2.593993902206421,-0.2441406100988388,73.33333587646484,832127.0,1.0
529038.2712717,-750000.125,47807.5234375,-750000.125,-228330.234375,52173.0859375,52243.80859375,-750000.125,-750000.125,-0.351318359375,0.932861328125,-0.08447265625,0.8544921278953552,2.532958745956421,-0.2441406100988388,73.33333587646484,832128.0,1.0
529038.2743367,-750000.125,50552.49609375,-750000.125,-228596.125,52268.03515625,52339.29296875,-750000.125,-750000.125,-0.351318359375,0.93212890625,-0.08544921875,0.8239745497703552,2.471923589706421,-0.1220703050494194,73.33333587646484,832129.0,1.0
529038.2830332,-750000.125,52094.140625,-750000.125,-229090.734375,52479.125,52551.27734375,-750000.125,-750000.125,-0.3544921875,0.93359375,-0.08740234375,0.8850097060203552,2.471923589706421,-0.1831054538488388,73.33333587646484,832130.0,1.0
529038.289993,-750000.125,52212.24609375,-750000.125,-229141.59375,52587.7578125,52659.640625,-750000.125,-750000.125,-0.354736328125,0.93359375,-0.085205078125,0.8239745497703552,2.502441167831421,-0.2136230319738388,73.33333587646484,832131.0,1.0
529038.2900294,-750000.125,51035.3828125,-750000.125,-228683.03125,52504.16015625,52574.97265625,-750000.125,-750000.125,-0.353515625,0.932373046875,-0.084716796875,0.7629393935203552,2.532958745956421,-0.2136230319738388,73.33333587646484,832132.0,1.0
529038.2963188,-750000.125,48218.79296875,-750000.125,-228361.171875,52424.58984375,52495.04296875,-750000.125,-750000.125,-0.3525390625,0.931396484375,-0.084716796875,0.7934569716453552,2.532958745956421,-0.3051757514476776,73.33333587646484,832133.0,1.0
529038.2963505,-750000.125,50875.1640625,-750000.125,-228628.9375,52521.68359375,52592.8515625,-750000.125,-750000.125,-0.351806640625,0.932373046875,-0.085205078125,0.7019042372703552,2.532958745956421,-0.3662109076976776,73.33333587646484,832134.0,1.0
529038.2980126,-750000.125,52349.93359375,-750000.125,-229124.703125,52733.9375,52806.35546875,-750000.125,-750000.125,-0.353271484375,0.93115234375,-0.0849609375,0.7019042372703552,2.532958745956421,-0.3662109076976776,73.33333587646484,832135.0,1.0
529038.3119818,-750000.125,52467.05859375,-750000.125,-229175.3125,52841.40234375,52913.734375,-750000.125,-750000.125,-0.35400390625,0.932861328125,-0.082763671875,0.6713866591453552,2.441406011581421,-0.1220703050494194,73.33333587646484,832136.0,1.0
529038.3167208,-750000.125,51343.2109375,-750000.125,-228717.71875,52757.80859375,52829.06640625,-750000.125,-750000.125,-0.354736328125,0.931396484375,-0.086181640625,0.6408690810203552,2.532958745956421,-0.1220703050494194,73.33333587646484,832137.0,1.0
529038.3167551,-750000.125,48609.4140625,-750000.125,-228396.03125,52678.4140625,52749.40234375,-750000.125,-750000.125,-0.353271484375,0.931396484375,-0.087890625,0.6408690810203552,2.502441167831421,0.0,73.33333587646484,832138.0,1.0
529038.3167723,-750000.125,51184.9609375,-750000.125,-228662.46875,52773.1875,52844.80078125,-750000.125,-750000.125,-0.354248046875,0.932373046875,-0.0859375,0.6408690810203552,2.471923589706421,0.03051757626235485,73.33333587646484,832139.0,1.0
529038.3195865,-750000.125,52603.40234375,-750000.125,-229158.40625,52985.6171875,53058.3046875,-750000.125,-750000.125,-0.355224609375,0.93359375,-0.0859375,0.6103515028953552,2.471923589706421,0.1220703050494194,73.33333587646484,832140.0,1.0
529038.3254604,-750000.125,52720.16796875,-750000.125,-229210.53125,53094.15625,53166.84375,-750000.125,-750000.125,-0.353271484375,0.93408203125,-0.08642578125,0.5493163466453552,2.471923589706421,0.0610351525247097,73.33333587646484,832141.0,1.0
529038.3292374,-750000.125,51650.32421875,-750000.125,-228754.5625,53011.9921875,53083.0703125,-750000.125,-750000.125,-0.3525390625,0.93310546875,-0.0859375,0.5798339247703552,2.532958745956421,0.1220703050494194,73.33333587646484,832142.0,1.0
529038.3363366,-750000.125,49003.33984375,-750000.125,-228431.171875,52930.18359375,53000.90625,-750000.125,-750000.125,-0.352294921875,0.931396484375,-0.083984375,0.6103515028953552,2.532958745956421,0.0610351525247097,73.33333587646484,832143.0,1.0
529038.3363762,-750000.125,51494.30859375,-750000.125,-228698.328125,53025.046875,53097.109375,-750000.125,-750000.125,-0.35205078125,0.930419921875,-0.084716796875,0.6408690810203552,2.532958745956421,-0.0915527269244194,73.33333587646484,832144.0,1.0
529038.3381362,-750000.125,52855.26171875,-750000.125,-229193.640625,53236.13671875,53308.734375,-750000.125,-750000.125,-0.351806640625,0.9326171875,-0.08642578125,0.7629393935203552,2.471923589706421,-0.1220703050494194,73.33333587646484,832145.0,1.0
529038.3467384,-750000.125,52967.6484375,-750000.125,-229241.203125,53340.83203125,53412.984375,-750000.125,-750000.125,-0.3505859375,0.930419921875,-0.08642578125,0.8239745497703552,2.563476324081421,-0.1831054538488388,73.33333587646484,832146.0,1.0
529038.3560053,-750000.125,51950.015625,-750000.125,-228784.0625,53257.86328125,53328.94140625,-750000.125,-750000.125,-0.351806640625,0.93017578125,-0.08349609375,0.7934569716453552,2.532958745956421,-0.2441406100988388,73.33333587646484,832147.0,1.0
529038.3560346,-750000.125,49393.9609375,-750000.125,-228461.125,53177.75390625,53248.20703125,-750000.125,-750000.125,-0.3515625,0.931640625,-0.08251953125,0.7629393935203552,2.593993902206421,-0.3356933295726776,73.33333587646484,832148.0,1.0
529038.3810999,-750000.125,51798.73828125,-750000.125,-228726.9375,53272.16796875,53343.69140625,-750000.125,-750000.125,-0.353759765625,0.93017578125,-0.081787109375,0.8239745497703552,2.593993902206421,-0.3662109076976776,73.33333587646484,832149.0,1.0
529038.3811319,-750000.125,53104.796875,-750000.125,-229222.875,53484.59765625,53557.28515625,-750000.125,-750000.125,-0.353515625,0.932373046875,-0.082763671875,0.8850097060203552,2.563476324081421,-0.3662109076976776,73.33333587646484,832150.0,1.0
529038.3862924,-750000.125,53218.7890625,-750000.125,-229271.875,53591.08203125,53663.94921875,-750000.125,-750000.125,-0.353759765625,0.931884765625,-0.085693359375,0.9460448622703552,2.502441167831421,-0.3662109076976776,73.33333587646484,832151.0,1.0
529038.3863239,-750000.125,52249.70703125,-750000.125,-228813.390625,53507.21875,53578.7421875,-750000.125,-750000.125,-0.35498046875,0.931884765625,-0.084716796875,0.9765624403953552,2.502441167831421,-0.3967284858226776,73.33333587646484,832152.0,1.0
529038.389203,-750000.125,49790.48046875,-750000.125,-228491.078125,53426.39453125,53497.65234375,-750000.125,-750000.125,-0.35546875,0.933349609375,-0.0830078125,0.8544921278953552,2.563476324081421,-0.3051757514476776,73.33333587646484,832153.0,1.0
529038.389232,-750000.125,52106.30078125,-750000.125,-228756.609375,53519.64453125,53591.796875,-750000.125,-750000.125,-0.35498046875,0.9326171875,-0.08447265625,0.8544921278953552,2.502441167831421,-0.2136230319738388,73.33333587646484,832154.0,1.0
529038.3892567,-750000.125,53352.453125,-750000.125,-229251.484375,53731.2734375,53804.05078125,-750000.125,-750000.125,-0.353515625,0.931396484375,-0.083740234375,0.8850097060203552,2.410888433456421,-0.1831054538488388,73.33333587646484,832155.0,1.0
529038.3918199,-750000.125,53464.83984375,-750000.125,-229300.203125,53837.578125,53910.17578125,-750000.125,-750000.125,-0.3525390625,0.9306640625,-0.083984375,0.7934569716453552,2.532958745956421,-0.0915527269244194,73.33333587646484,832156.0,1.0
529038.3946707,-750000.125,52551.9921875,-750000.125,-228843.609375,53754.6953125,53826.7578125,-750000.125,-750000.125,-0.35205078125,0.929931640625,-0.08251953125,0.7019042372703552,2.502441167831421,-0.03051757626235485,73.33333587646484,832157.0,1.0
529038.3987475,-750000.125,50184.67578125,-750000.125,-228520.9375,53673.06640625,53744.32421875,-750000.125,-750000.125,-0.3525390625,0.93115234375,-0.0849609375,0.6103515028953552,2.532958745956421,-0.03051757626235485,73.33333587646484,832158.0,1.0
529038.3987794,-750000.125,52408.49609375,-750000.125,-228789.515625,53768.5546875,53840.34765625,-750000.125,-750000.125,-0.353515625,0.9326171875,-0.0859375,0.7019042372703552,2.532958745956421,0.0915527269244194,73.33333587646484,832159.0,1.0
529038.4005824,-750000.125,53601.80859375,-750000.125,-229285.1875,53979.734375,54052.8671875,-750000.125,-750000.125,-0.352294921875,0.931884765625,-0.0869140625,0.6713866591453552,2.410888433456421,-0.03051757626235485,73.33333587646484,832160.0,1.0
529038.414939,-750000.125,53714.1953125,-750000.125,-229333.734375,54086.12890625,54158.99609375,-750000.125,-750000.125,-0.35205078125,0.930908203125,-0.084228515625,0.7324218153953552,2.410888433456421,0.03051757626235485,73.33333587646484,832161.0,1.0
529038.4149711,-750000.125,52844.0859375,-750000.125,-228875.53125,54001.7265625,54073.43359375,-750000.125,-750000.125,-0.354248046875,0.932373046875,-0.084716796875,0.7324218153953552,2.410888433456421,-0.0610351525247097,73.33333587646484,832162.0,1.0
529038.4170533,-750000.125,50559.73828125,-750000.125,-228553.03125,53919.921875,53991.53515625,-750000.125,-750000.125,-0.352783203125,0.932373046875,-0.085205078125,0.6408690810203552,2.502441167831421,0.0,73.33333587646484,832163.0,1.0
529038.4195854,-750000.125,52704.1640625,-750000.125,-228822.15625,54015.49609375,54088.18359375,-750000.125,-750000.125,-0.352783203125,0.93359375,-0.0830078125,0.7019042372703552,2.502441167831421,0.0,73.33333587646484,832164.0,1.0
529038.4219445,-750000.125,53849.19921875,-750000.125,-229315.859375,54225.87109375,54299.453125,-750000.125,-750000.125,-0.352783203125,0.933837890625,-0.0849609375,0.7629393935203552,2.502441167831421,-0.0610351525247097,73.33333587646484,832165.0,1.0
529038.4306616,-750000.125,53960.6015625,-750000.125,-229364.578125,54331.90625,54405.578125,-750000.125,-750000.125,-0.353515625,0.932861328125,-0.083984375,0.7934569716453552,2.532958745956421,0.0,73.33333587646484,832166.0,1.0
529038.433631,-750000.125,53134.12109375,-750000.125,-228908.609375,54250.01171875,54322.4296875,-750000.125,-750000.125,-0.352294921875,0.932861328125,-0.0810546875,0.7629393935203552,2.471923589706421,-0.0915527269244194,73.33333587646484,832167.0,1.0
529038.433663,-750000.125,50937.83984375,-750000.125,-228587.453125,54169.1875,54241.33984375,-750000.125,-750000.125,-0.35107421875,0.93310546875,-0.08349609375,0.6713866591453552,2.380370855331421,-0.0610351525247097,73.33333587646484,832168.0,1.0
529038.4356768,-750000.125,53002.3359375,-750000.125,-228855.671875,54264.046875,54337.09375,-750000.125,-750000.125,-0.351318359375,0.933349609375,-0.084716796875,0.6713866591453552,2.471923589706421,-0.1525878757238388,73.33333587646484,832169.0,1.0
529038.4496113,-750000.125,54098.734375,-750000.125,-229350.546875,54474.51171875,54548.453125,-750000.125,-750000.125,-0.35205078125,0.93359375,-0.085205078125,0.7629393935203552,2.532958745956421,-0.1220703050494194,73.33333587646484,832170.0,1.0
529038.4547705,-750000.125,54209.421875,-750000.125,-229398.921875,54580.546875,54654.04296875,-750000.125,-750000.125,-0.35205078125,0.935302734375,-0.0830078125,0.8239745497703552,2.502441167831421,-0.1220703050494194,73.33333587646484,832171.0,1.0
529038.4548076,-750000.125,53427.64453125,-750000.125,-228941.59375,54497.3984375,54570.265625,-750000.125,-750000.125,-0.35205078125,0.93408203125,-0.08251953125,0.8239745497703552,2.502441167831421,-0.2136230319738388,73.33333587646484,832172.0,1.0
529038.4567004,-750000.125,51317.1953125,-750000.125,-228619.203125,54416.0390625,54488.19140625,-750000.125,-750000.125,-0.3515625,0.931396484375,-0.084716796875,0.8544921278953552,2.471923589706421,-0.3967284858226776,73.33333587646484,832173.0,1.0
529038.4633581,-750000.125,53299.4375,-750000.125,-228887.328125,54510.8125,54583.9453125,-750000.125,-750000.125,-0.351318359375,0.9306640625,-0.08203125,0.8239745497703552,2.532958745956421,-0.2746581733226776,73.33333587646484,832174.0,1.0
529038.4655752,-750000.125,54345.05078125,-750000.125,-229380.859375,54720.3828125,54794.6796875,-750000.125,-750000.125,-0.353759765625,0.92919921875,-0.081787109375,0.7629393935203552,2.624511480331421,-0.3356933295726776,73.33333587646484,832175.0,1.0
529038.4683971,-750000.125,54457.16796875,-750000.125,-229429.9375,54828.02734375,54901.87890625,-750000.125,-750000.125,-0.352783203125,0.93212890625,-0.081298828125,0.8850097060203552,2.563476324081421,-0.4272460639476776,73.33333587646484,832176.0,1.0
529038.4723255,-750000.125,53716.7890625,-750000.125,-228974.859375,54748.1875,54820.60546875,-750000.125,-750000.125,-0.355224609375,0.930419921875,-0.084228515625,0.8239745497703552,2.563476324081421,-0.3967284858226776,73.33333587646484,832177.0,1.0
529038.4723597,-750000.125,51694.3125,-750000.125,-228653.96875,54667.54296875,54739.42578125,-750000.125,-750000.125,-0.35498046875,0.930908203125,-0.0849609375,0.7934569716453552,2.441406011581421,-0.2746581733226776,73.33333587646484,832178.0,1.0
529038.4782111,-750000.125,53597.96484375,-750000.125,-228924.34375,54763.02734375,54836.34375,-750000.125,-750000.125,-0.35595703125,0.9306640625,-0.082275390625,0.8239745497703552,2.532958745956421,-0.1831054538488388,73.33333587646484,832179.0,1.0
529038.4867814,-750000.125,54598.51953125,-750000.125,-229418.046875,54972.8671875,55046.8046875,-750000.125,-750000.125,-0.356201171875,0.929931640625,-0.083251953125,0.7934569716453552,2.502441167831421,-0.0915527269244194,73.33333587646484,832180.0,1.0
529038.4898985,-750000.125,54705.98828125,-750000.125,-229462.9375,55076.1328125,55150.25,-750000.125,-750000.125,-0.35400390625,0.929443359375,-0.082763671875,0.6713866591453552,2.441406011581421,0.0610351525247097,73.33333587646484,832181.0,1.0
529038.4899262,-750000.125,54007.359375,-750000.125,-229005.171875,54992.26953125,55065.671875,-750000.125,-750000.125,-0.353515625,0.931884765625,-0.082275390625,0.6408690810203552,2.471923589706421,0.1525878757238388,73.33333587646484,832182.0,1.0
529038.491753,-750000.125,52063.47265625,-750000.125,-228685.890625,54911.80078125,54984.7578125,-750000.125,-750000.125,-0.353759765625,0.930908203125,-0.085205078125,0.7019042372703552,2.471923589706421,0.0915527269244194,73.33333587646484,832183.0,1.0
529038.5029821,-750000.125,53882.90625,-750000.125,-228954.921875,55006.03515625,55079.70703125,-750000.125,-750000.125,-0.352294921875,0.933349609375,-0.084716796875,0.6713866591453552,2.471923589706421,0.1525878757238388,73.33333587646484,832184.0,1.0
529038.506163,-750000.125,54842.51171875,-750000.125,-229449.34375,55216.23046875,55290.88671875,-750000.125,-750000.125,-0.35205078125,0.931640625,-0.08642578125,0.6408690810203552,2.532958745956421,0.1220703050494194,73.33333587646484,832185.0,1.0
529038.5061921,-750000.125,54950.3359375,-750000.125,-229495.203125,55319.9453125,55394.33203125,-750000.125,-750000.125,-0.3525390625,0.933349609375,-0.088623046875,0.6103515028953552,2.502441167831421,0.0915527269244194,73.33333587646484,832186.0,1.0
529038.508041,-750000.125,54288.1875,-750000.125,-229035.828125,55234.0234375,55307.33984375,-750000.125,-750000.125,-0.352294921875,0.933349609375,-0.084716796875,0.5798339247703552,2.502441167831421,0.0915527269244194,73.33333587646484,832187.0,1.0
529038.5167405,-750000.125,52430.3984375,-750000.125,-228716.65625,55153.9140625,55227.05078125,-750000.125,-750000.125,-0.353271484375,0.93212890625,-0.0859375,0.7019042372703552,2.441406011581421,0.0915527269244194,73.33333587646484,832188.0,1.0
529038.520106,-750000.125,54171.6015625,-750000.125,-228987.546875,55250.296875,55324.234375,-750000.125,-750000.125,-0.352783203125,0.930419921875,-0.0830078125,0.6713866591453552,2.410888433456421,-0.0610351525247097,73.33333587646484,832189.0,1.0
529038.5201485,-750000.125,55089.36328125,-750000.125,-229482.78125,55462.546875,55536.84375,-750000.125,-750000.125,-0.351806640625,0.930419921875,-0.081298828125,0.6103515028953552,2.471923589706421,-0.0915527269244194,73.33333587646484,832190.0,1.0
529038.5281118,-750000.125,55196.65234375,-750000.125,-229527.75,55566.08203125,55640.55859375,-750000.125,-750000.125,-0.352783203125,0.930419921875,-0.0830078125,0.6408690810203552,2.532958745956421,-0.1831054538488388,73.33333587646484,832191.0,1.0
529038.5311538,-750000.125,54572.32421875,-750000.125,-229069.09375,55481.59375,55555.44140625,-750000.125,-750000.125,-0.3525390625,0.9326171875,-0.082763671875,0.8239745497703552,2.655029058456421,-0.3662109076976776,73.33333587646484,832192.0,1.0
529038.5311815,-750000.125,52791.06640625,-750000.125,-228750.0,55401.57421875,55474.796875,-750000.125,-750000.125,-0.35302734375,0.93310546875,-0.082275390625,0.8544921278953552,2.532958745956421,-0.2746581733226776,73.33333587646484,832193.0,1.0
529038.5367275,-750000.125,54454.0390625,-750000.125,-229018.84375,55496.5234375,55570.015625,-750000.125,-750000.125,-0.352783203125,0.932861328125,-0.0830078125,0.8544921278953552,2.563476324081421,-0.2441406100988388,73.33333587646484,832194.0,1.0
529038.5430879,-750000.125,55334.16015625,-750000.125,-229513.171875,55706.80859375,55781.640625,-750000.125,-750000.125,-0.351806640625,0.93017578125,-0.085205078125,0.8544921278953552,2.502441167831421,-0.1220703050494194,73.33333587646484,832195.0,1.0
529038.5524445,-750000.125,55441.359375,-750000.125,-229558.421875,55810.609375,55885.265625,-750000.125,-750000.125,-0.35107421875,0.931884765625,-0.08349609375,0.8544921278953552,2.532958745956421,-0.1831054538488388,73.33333587646484,832196.0,1.0
529038.5524753,-750000.125,54853.0625,-750000.125,-229100.109375,55726.56640625,55800.23828125,-750000.125,-750000.125,-0.353271484375,0.93212890625,-0.08544921875,0.8239745497703552,2.593993902206421,-0.1831054538488388,73.33333587646484,832197.0,1.0
529038.554883,-750000.125,53149.6796875,-750000.125,-228780.578125,55645.56640625,55719.14453125,-750000.125,-750000.125,-0.353515625,0.934326171875,-0.08349609375,0.8239745497703552,2.563476324081421,-0.2746581733226776,73.33333587646484,832198.0,1.0
529038.5549144,-750000.125,54738.53125,-750000.125,-229050.765625,55740.06640625,55814.1875,-750000.125,-750000.125,-0.3544921875,0.93212890625,-0.0849609375,0.7629393935203552,2.563476324081421,-0.2746581733226776,73.33333587646484,832199.0,1.0
529038.5629964,-750000.125,55578.41796875,-750000.125,-229544.828125,55950.17578125,56025.0078125,-750000.125,-750000.125,-0.3544921875,0.93359375,-0.0869140625,0.7629393935203552,2.563476324081421,-0.1525878757238388,73.33333587646484,832200.0,1.0
529038.5657326,-750000.125,55685.796875,-750000.125,-229590.25,56054.69140625,56129.34765625,-750000.125,-750000.125,-0.3515625,0.933837890625,-0.08447265625,0.6408690810203552,2.563476324081421,-0.1831054538488388,73.33333587646484,832201.0,1.0
529038.568258,-750000.125,55128.703125,-750000.125,-229131.953125,55970.73828125,56044.140625,-750000.125,-750000.125,-0.3525390625,0.93310546875,-0.08447265625,0.6713866591453552,2.471923589706421,-0.1831054538488388,73.33333587646484,832202.0,1.0
529038.5817482,-750000.125,53507.0390625,-750000.125,-228811.875,55889.734375,55962.421875,-750000.125,-750000.125,-0.3544921875,0.930908203125,-0.081787109375,0.7629393935203552,2.349853277206421,-0.0915527269244194,73.33333587646484,832203.0,1.0
529038.5906128,-750000.125,55020.69921875,-750000.125,-229081.703125,55983.87890625,56057.55078125,-750000.125,-750000.125,-0.35498046875,0.9306640625,-0.08056640625,0.7324218153953552,2.380370855331421,0.0610351525247097,73.33333587646484,832204.0,1.0
529038.5906514,-750000.125,55821.96484375,-750000.125,-229575.5,56193.09375,56268.10546875,-750000.125,-750000.125,-0.35595703125,0.930908203125,-0.08203125,0.6103515028953552,2.471923589706421,0.0610351525247097,73.33333587646484,832205.0,1.0
529038.5906781,-750000.125,55928.89453125,-750000.125,-229621.359375,56297.4296875,56372.35546875,-750000.125,-750000.125,-0.35498046875,0.931640625,-0.083984375,0.6103515028953552,2.471923589706421,0.0610351525247097,73.33333587646484,832206.0,1.0
529038.5935992,-750000.125,55407.65234375,-750000.125,-229162.875,56213.30078125,56286.79296875,-750000.125,-750000.125,-0.353759765625,0.9326171875,-0.0810546875,0.6103515028953552,2.532958745956421,0.0915527269244194,73.33333587646484,832207.0,1.0
529038.5936464,-750000.125,53858.85546875,-750000.125,-228842.890625,56131.7578125,56204.625,-750000.125,-750000.125,-0.35400390625,0.933837890625,-0.08447265625,0.6713866591453552,2.441406011581421,0.1220703050494194,73.33333587646484,832208.0,1.0
529038.5955452,-750000.125,55298.75390625,-750000.125,-229115.765625,56228.23046875,56302.078125,-750000.125,-750000.125,-0.352783203125,0.93310546875,-0.082763671875,0.6713866591453552,2.410888433456421,0.0915527269244194,73.33333587646484,832209.0,1.0
529038.598214,-750000.125,56067.74609375,-750000.125,-229611.875,56438.78515625,56513.796875,-750000.125,-750000.125,-0.35302734375,0.93212890625,-0.0830078125,0.7019042372703552,2.441406011581421,-0.0610351525247097,73.33333587646484,832210.0,1.0
529038.6117838,-750000.125,56173.33203125,-750000.125,-229656.140625,56541.421875,56616.79296875,-750000.125,-750000.125,-0.35107421875,0.934814453125,-0.083251953125,0.7019042372703552,2.471923589706421,0.03051757626235485,73.33333587646484,832211.0,1.0
529038.6151656,-750000.125,55679.359375,-750000.125,-229197.125,56456.30859375,56530.6953125,-750000.125,-750000.125,-0.3525390625,0.93310546875,-0.0830078125,0.6713866591453552,2.532958745956421,-0.0915527269244194,73.33333587646484,832212.0,1.0
529038.615203,-750000.125,54197.88671875,-750000.125,-228878.921875,56376.37890625,56450.13671875,-750000.125,-750000.125,-0.350830078125,0.934814453125,-0.085205078125,0.7324218153953552,2.502441167831421,-0.1831054538488388,73.33333587646484,832213.0,1.0
529038.6167955,-750000.125,55571.89453125,-750000.125,-229148.671875,56470.703125,56544.8203125,-750000.125,-750000.125,-0.350830078125,0.93212890625,-0.082275390625,0.7324218153953552,2.532958745956421,-0.2746581733226776,73.33333587646484,832214.0,1.0
529038.6194854,-750000.125,56308.78515625,-750000.125,-229641.75,56679.46875,56754.8359375,-750000.125,-750000.125,-0.3515625,0.931884765625,-0.083251953125,0.7629393935203552,2.471923589706421,-0.3967284858226776,73.33333587646484,832215.0,1.0
529038.6280695,-750000.125,56413.48046875,-750000.125,-229685.546875,56781.66015625,56856.8515625,-750000.125,-750000.125,-0.351806640625,0.9296875,-0.0830078125,0.7934569716453552,2.380370855331421,-0.3051757514476776,73.33333587646484,832216.0,1.0
529038.6311646,-750000.125,55950.3515625,-750000.125,-229227.796875,56697.796875,56771.9140625,-750000.125,-750000.125,-0.3515625,0.9306640625,-0.0859375,0.7934569716453552,2.502441167831421,-0.3356933295726776,73.33333587646484,832217.0,1.0
529038.6311969,-750000.125,54543.265625,-750000.125,-228909.671875,56618.671875,56692.07421875,-750000.125,-750000.125,-0.352783203125,0.9306640625,-0.082763671875,0.8239745497703552,2.471923589706421,-0.3967284858226776,73.33333587646484,832218.0,1.0
529038.6342793,-750000.125,55846.10546875,-750000.125,-229178.890625,56713.08203125,56787.3828125,-750000.125,-750000.125,-0.353759765625,0.933349609375,-0.08447265625,0.8544921278953552,2.502441167831421,-0.3967284858226776,73.33333587646484,832219.0,1.0
529038.6430828,-750000.125,56552.33203125,-750000.125,-229672.765625,56922.56640625,56998.0234375,-750000.125,-750000.125,-0.35400390625,0.93212890625,-0.08544921875,0.7629393935203552,2.563476324081421,-0.2441406100988388,73.33333587646484,832220.0,1.0
529038.6476187,-750000.125,56659.9765625,-750000.125,-229718.984375,57027.796875,57102.8984375,-750000.125,-750000.125,-0.35498046875,0.931884765625,-0.085205078125,0.8544921278953552,2.593993902206421,-0.3051757514476776,73.33333587646484,832221.0,1.0
529038.6476516,-750000.125,56228.05078125,-750000.125,-229259.796875,56942.859375,57017.15625,-750000.125,-750000.125,-0.357177734375,0.93115234375,-0.083251953125,0.7934569716453552,2.563476324081421,-0.2136230319738388,73.33333587646484,832222.0,1.0
529038.6579512,-750000.125,54894.546875,-750000.125,-228938.296875,56859.35546875,56933.29296875,-750000.125,-750000.125,-0.355712890625,0.93017578125,-0.084716796875,0.7324218153953552,2.502441167831421,-0.03051757626235485,73.33333587646484,832223.0,1.0
529038.6610055,-750000.125,56121.30078125,-750000.125,-229210.796875,56954.5703125,57029.49609375,-750000.125,-750000.125,-0.3564453125,0.93115234375,-0.08349609375,0.7934569716453552,2.593993902206421,-0.0610351525247097,73.33333587646484,832224.0,1.0
529038.6610327,-750000.125,56792.8359375,-750000.125,-229704.859375,57163.0703125,57238.26171875,-750000.125,-750000.125,-0.355224609375,0.93017578125,-0.08154296875,0.7629393935203552,2.563476324081421,0.03051757626235485,73.33333587646484,832225.0,1.0
529038.6667362,-750000.125,56897.62109375,-750000.125,-229748.859375,57265.6171875,57341.2578125,-750000.125,-750000.125,-0.3544921875,0.931640625,-0.08154296875,0.7629393935203552,2.532958745956421,0.0,73.33333587646484,832226.0,1.0
529038.6696488,-750000.125,56493.0546875,-750000.125,-229290.90625,57181.578125,57256.3203125,-750000.125,-750000.125,-0.353515625,0.9306640625,-0.083740234375,0.7019042372703552,2.532958745956421,0.0610351525247097,73.33333587646484,832227.0,1.0
529038.6720106,-750000.125,55221.86328125,-750000.125,-228970.203125,57099.41015625,57173.3515625,-750000.125,-750000.125,-0.353515625,0.93212890625,-0.085205078125,0.6713866591453552,2.471923589706421,0.0610351525247097,73.33333587646484,832228.0,1.0
529038.6755542,-750000.125,56386.66015625,-750000.125,-229241.203125,57193.55859375,57268.48046875,-750000.125,-750000.125,-0.354736328125,0.93359375,-0.08544921875,0.6103515028953552,2.319335699081421,-0.03051757626235485,73.33333587646484,832229.0,1.0
529038.6898687,-750000.125,57031.73046875,-750000.125,-229734.28125,57401.875,57477.6015625,-750000.125,-750000.125,-0.35302734375,0.93408203125,-0.08349609375,0.4882812201976776,2.471923589706421,-0.0915527269244194,73.33333587646484,832230.0,1.0
529038.689905,-750000.125,57138.5703125,-750000.125,-229780.421875,57506.48046875,57582.4765625,-750000.125,-750000.125,-0.351318359375,0.93115234375,-0.081787109375,0.4882812201976776,2.471923589706421,-0.0610351525247097,73.33333587646484,832231.0,1.0
529038.6917293,-750000.125,56757.33984375,-750000.125,-229321.484375,57421.45703125,57496.2890625,-750000.125,-750000.125,-0.3525390625,0.93310546875,-0.0849609375,0.5493163466453552,2.471923589706421,-0.1220703050494194,73.33333587646484,832232.0,1.0
529038.6946138,-750000.125,55558.48046875,-750000.125,-229003.203125,57340.80859375,57414.9296875,-750000.125,-750000.125,-0.354736328125,0.930908203125,-0.0859375,0.7324218153953552,2.563476324081421,-0.03051757626235485,73.33333587646484,832233.0,1.0
529038.6969514,-750000.125,56660.15625,-750000.125,-229275.71875,57436.921875,57512.0234375,-750000.125,-750000.125,-0.354248046875,0.93115234375,-0.083984375,0.7324218153953552,2.380370855331421,0.03051757626235485,73.33333587646484,832234.0,1.0
529038.7030857,-750000.125,57274.46875,-750000.125,-229768.078125,57644.2578125,57720.25390625,-750000.125,-750000.125,-0.353515625,0.93310546875,-0.08154296875,0.7019042372703552,2.471923589706421,0.0610351525247097,73.33333587646484,832235.0,1.0
529038.7076202,-750000.125,57380.7734375,-750000.125,-229812.6875,57748.41796875,57824.234375,-750000.125,-750000.125,-0.354248046875,0.931640625,-0.083251953125,0.7019042372703552,2.471923589706421,-0.03051757626235485,73.33333587646484,832236.0,1.0
529038.7076531,-750000.125,57025.3828125,-750000.125,-229355.640625,57664.640625,57739.56640625,-750000.125,-750000.125,-0.352783203125,0.9326171875,-0.082275390625,0.6408690810203552,2.502441167831421,-0.0610351525247097,73.33333587646484,832237.0,1.0
529038.7179973,-750000.125,55886.515625,-750000.125,-229036.375,57582.296875,57656.68359375,-750000.125,-750000.125,-0.3544921875,0.931396484375,-0.082763671875,0.7629393935203552,2.593993902206421,-0.1220703050494194,73.33333587646484,832238.0,1.0
529038.7211356,-750000.125,56925.24609375,-750000.125,-229307.359375,57676.98046875,57751.9921875,-750000.125,-750000.125,-0.35498046875,0.930908203125,-0.0849609375,0.7934569716453552,2.532958745956421,-0.2441406100988388,73.33333587646484,832239.0,1.0
529038.7211694,-750000.125,57517.03125,-750000.125,-229802.046875,57886.4609375,57962.63671875,-750000.125,-750000.125,-0.35400390625,0.93115234375,-0.087158203125,0.8239745497703552,2.502441167831421,-0.2441406100988388,73.33333587646484,832240.0,1.0
529038.7268681,-750000.125,57622.17578125,-750000.125,-229846.390625,57989.45703125,58065.6328125,-750000.125,-750000.125,-0.354736328125,0.929443359375,-0.0849609375,0.8239745497703552,2.563476324081421,-0.3967284858226776,73.33333587646484,832241.0,1.0
529038.733603,-750000.125,57288.86328125,-750000.125,-229387.203125,57904.25390625,57979.625,-750000.125,-750000.125,-0.353515625,0.927734375,-0.08251953125,0.7019042372703552,2.502441167831421,-0.3356933295726776,73.33333587646484,832242.0,1.0
529038.7336298,-750000.125,56215.0859375,-750000.125,-229069.8125,57824.4140625,57899.42578125,-750000.125,-750000.125,-0.3544921875,0.929443359375,-0.084716796875,0.7629393935203552,2.655029058456421,-0.3356933295726776,73.33333587646484,832243.0,1.0
529038.7355397,-750000.125,57191.94921875,-750000.125,-229339.734375,57918.828125,57994.46484375,-750000.125,-750000.125,-0.353515625,0.931884765625,-0.087158203125,0.8544921278953552,2.563476324081421,-0.3356933295726776,73.33333587646484,832244.0,1.0
529038.7379965,-750000.125,57757.4453125,-750000.125,-229832.1875,58126.96484375,58203.3203125,-750000.125,-750000.125,-0.35498046875,0.932861328125,-0.086669921875,0.8239745497703552,2.471923589706421,-0.3356933295726776,73.33333587646484,832245.0,1.0
529038.7468259,-750000.125,57863.57421875,-750000.125,-229878.21875,58231.21484375,58307.12109375,-750000.125,-750000.125,-0.354248046875,0.9326171875,-0.083984375,0.7934569716453552,2.471923589706421,-0.1831054538488388,73.33333587646484,832246.0,1.0
529038.751466,-750000.125,57553.421875,-750000.125,-229422.421875,58149.49609375,58224.5078125,-750000.125,-750000.125,-0.3544921875,0.93359375,-0.0849609375,0.7019042372703552,2.563476324081421,-0.1525878757238388,73.33333587646484,832247.0,1.0
529038.751498,-750000.125,56538.828125,-750000.125,-229103.328125,58067.95703125,58142.7890625,-750000.125,-750000.125,-0.353515625,0.933349609375,-0.085205078125,0.7324218153953552,2.502441167831421,-0.03051757626235485,73.33333587646484,832248.0,1.0
529038.7531015,-750000.125,57457.84375,-750000.125,-229374.15625,58161.12109375,58236.66796875,-750000.125,-750000.125,-0.352783203125,0.933349609375,-0.08447265625,0.7019042372703552,2.471923589706421,0.1831054538488388,73.33333587646484,832249.0,1.0
529038.7619407,-750000.125,57998.66796875,-750000.125,-229867.234375,58367.6484375,58444.18359375,-750000.125,-750000.125,-0.35302734375,0.93310546875,-0.084228515625,0.6408690810203552,2.410888433456421,0.0915527269244194,73.33333587646484,832250.0,1.0
529038.7705793,-750000.125,58103.453125,-750000.125,-229912.203125,58470.82421875,58547.1796875,-750000.125,-750000.125,-0.35205078125,0.93212890625,-0.086181640625,0.5493163466453552,2.441406011581421,0.1831054538488388,73.33333587646484,832251.0,1.0
529038.7736553,-750000.125,57813.59375,-750000.125,-229455.0625,58387.140625,58462.6875,-750000.125,-750000.125,-0.35302734375,0.9326171875,-0.08349609375,0.5493163466453552,2.471923589706421,0.0610351525247097,73.33333587646484,832252.0,1.0
529038.773703,-750000.125,56864.00390625,-750000.125,-229135.96875,58304.9765625,58380.2578125,-750000.125,-750000.125,-0.352783203125,0.932861328125,-0.0859375,0.5493163466453552,2.441406011581421,0.0915527269244194,73.33333587646484,832253.0,1.0
529038.7756013,-750000.125,57720.43359375,-750000.125,-229407.3125,58398.31640625,58474.3125,-750000.125,-750000.125,-0.352294921875,0.932373046875,-0.0830078125,0.5187987685203552,2.380370855331421,0.03051757626235485,73.33333587646484,832254.0,1.0
529038.7797067,-750000.125,58237.203125,-750000.125,-229899.859375,58605.47265625,58682.09375,-750000.125,-750000.125,-0.35205078125,0.930908203125,-0.084716796875,0.6103515028953552,2.441406011581421,-0.1220703050494194,73.33333587646484,832255.0,1.0
529038.7882314,-750000.125,58342.8828125,-750000.125,-229945.546875,58709.6328125,58785.89453125,-750000.125,-750000.125,-0.3515625,0.931884765625,-0.082275390625,0.6103515028953552,2.410888433456421,-0.0915527269244194,73.33333587646484,832256.0,1.0
529038.7924532,-750000.125,58069.92578125,-750000.125,-229488.234375,58625.58984375,58700.95703125,-750000.125,-750000.125,-0.3525390625,0.931396484375,-0.08349609375,0.7324218153953552,2.380370855331421,-0.1831054538488388,73.33333587646484,832257.0,1.0
529038.7925065,-750000.125,57174.3359375,-750000.125,-229169.9375,58544.40625,58619.2421875,-750000.125,-750000.125,-0.3505859375,0.93212890625,-0.08544921875,0.7934569716453552,2.502441167831421,-0.3051757514476776,73.33333587646484,832258.0,1.0
529038.7944083,-750000.125,57979.98046875,-750000.125,-229440.84375,58638.73046875,58714.7265625,-750000.125,-750000.125,-0.350341796875,0.9345703125,-0.08544921875,0.8544921278953552,2.532958745956421,-0.2441406100988388,73.33333587646484,832259.0,1.0
529038.8081849,-750000.125,58476.7265625,-750000.125,-229931.875,58844.81640625,58921.97265625,-750000.125,-750000.125,-0.352294921875,0.931884765625,-0.08447265625,0.8239745497703552,2.532958745956421,-0.2441406100988388,73.33333587646484,832260.0,1.0
529038.8111497,-750000.125,58580.16796875,-750000.125,-229974.25,58946.6484375,59023.5390625,-750000.125,-750000.125,-0.352783203125,0.9306640625,-0.083984375,0.8239745497703552,2.502441167831421,-0.3356933295726776,73.33333587646484,832261.0,1.0
529038.8112046,-750000.125,58329.3828125,-750000.125,-229517.921875,58864.03515625,58939.85546875,-750000.125,-750000.125,-0.354248046875,0.931884765625,-0.084228515625,0.8850097060203552,2.563476324081421,-0.3051757514476776,73.33333587646484,832262.0,1.0
529038.8130875,-750000.125,57497.5390625,-750000.125,-229199.890625,58782.9453125,58858.31640625,-750000.125,-750000.125,-0.35302734375,0.931640625,-0.0869140625,0.7934569716453552,2.563476324081421,-0.2746581733226776,73.33333587646484,832263.0,1.0
529038.8172326,-750000.125,58242.03125,-750000.125,-229471.6875,58877.26953125,58953.265625,-750000.125,-750000.125,-0.35400390625,0.92919921875,-0.087646484375,0.8239745497703552,2.441406011581421,-0.2441406100988388,73.33333587646484,832264.0,1.0
529038.8264562,-750000.125,58715.44140625,-750000.125,-229963.34375,59083.53125,59160.6015625,-750000.125,-750000.125,-0.351318359375,0.930908203125,-0.086669921875,0.7324218153953552,2.532958745956421,-0.1220703050494194,73.33333587646484,832265.0,1.0
529038.8265164,-750000.125,58819.69140625,-750000.125,-230007.78125,59186.08203125,59263.05859375,-750000.125,-750000.125,-0.3525390625,0.929931640625,-0.085693359375,0.8239745497703552,2.655029058456421,-0.2746581733226776,73.33333587646484,832266.0,1.0
529038.8280706,-750000.125,58582.671875,-750000.125,-229547.953125,59099.89453125,59176.15625,-750000.125,-750000.125,-0.353759765625,0.930419921875,-0.084228515625,0.7629393935203552,2.471923589706421,-0.2136230319738388,73.33333587646484,832267.0,1.0
529038.834284,-750000.125,57807.06640625,-750000.125,-229229.21875,59018.0859375,59093.72265625,-750000.125,-750000.125,-0.35498046875,0.930908203125,-0.08447265625,0.7324218153953552,2.502441167831421,-0.0915527269244194,73.33333587646484,832268.0,1.0
529038.8514348,-750000.125,58497.46875,-750000.125,-229500.921875,59112.140625,59188.2265625,-750000.125,-750000.125,-0.354736328125,0.931884765625,-0.0849609375,0.7019042372703552,2.502441167831421,-0.0915527269244194,73.33333587646484,832269.0,1.0
529038.8514914,-750000.125,58953.4453125,-750000.125,-229996.0625,59321.17578125,59398.51171875,-750000.125,-750000.125,-0.355712890625,0.93212890625,-0.08447265625,0.6103515028953552,2.471923589706421,-0.0915527269244194,73.33333587646484,832270.0,1.0
529038.8533356,-750000.125,59059.03515625,-750000.125,-230041.21875,59425.06640625,59502.4921875,-750000.125,-750000.125,-0.355224609375,0.932861328125,-0.084716796875,0.7019042372703552,2.502441167831421,-0.1220703050494194,73.33333587646484,832271.0,1.0
529038.8561989,-750000.125,58839.80859375,-750000.125,-229583.09375,59341.29296875,59417.9140625,-750000.125,-750000.125,-0.35498046875,0.932861328125,-0.08251953125,0.7019042372703552,2.441406011581421,-0.0610351525247097,73.33333587646484,832272.0,1.0
529038.8562466,-750000.125,58118.7421875,-750000.125,-229264.71875,59259.484375,59335.66015625,-750000.125,-750000.125,-0.35400390625,0.93212890625,-0.080322265625,0.7019042372703552,2.410888433456421,-0.1220703050494194,73.33333587646484,832273.0,1.0
529038.8580179,-750000.125,58755.49609375,-750000.125,-229534.453125,59351.125,59428.015625,-750000.125,-750000.125,-0.352294921875,0.93310546875,-0.081787109375,0.6713866591453552,2.471923589706421,0.0,73.33333587646484,832274.0,1.0
529038.860586,-750000.125,59189.12109375,-750000.125,-230026.640625,59556.76171875,59634.7265625,-750000.125,-750000.125,-0.3525390625,0.933349609375,-0.080322265625,0.6713866591453552,2.532958745956421,-0.0610351525247097,73.33333587646484,832275.0,1.0
529038.8744401,-750000.125,59295.87109375,-750000.125,-230073.21875,59661.546875,59739.15234375,-750000.125,-750000.125,-0.352294921875,0.93359375,-0.085205078125,0.6103515028953552,2.532958745956421,0.0610351525247097,73.33333587646484,832276.0,1.0
529038.8774498,-750000.125,59089.34375,-750000.125,-229616.078125,59577.50390625,59654.57421875,-750000.125,-750000.125,-0.353271484375,0.932861328125,-0.083251953125,0.6408690810203552,2.441406011581421,-0.03051757626235485,73.33333587646484,832277.0,1.0
529038.8774976,-750000.125,58415.3046875,-750000.125,-229297.890625,59495.69921875,59572.41015625,-750000.125,-750000.125,-0.353271484375,0.932861328125,-0.07958984375,0.7324218153953552,2.471923589706421,0.1220703050494194,73.33333587646484,832278.0,1.0
529038.8793657,-750000.125,59008.96484375,-750000.125,-229568.25,59587.609375,59664.67578125,-750000.125,-750000.125,-0.3515625,0.932373046875,-0.084716796875,0.7019042372703552,2.471923589706421,0.0,73.33333587646484,832279.0,1.0
529038.8817875,-750000.125,59426.31640625,-750000.125,-230060.609375,59793.78125,59871.83203125,-750000.125,-750000.125,-0.35302734375,0.928955078125,-0.085205078125,0.7629393935203552,2.532958745956421,-0.1525878757238388,73.33333587646484,832280.0,1.0
529038.885852,-750000.125,59530.74609375,-750000.125,-230104.25,59896.41796875,59974.29296875,-750000.125,-750000.125,-0.35400390625,0.932373046875,-0.0830078125,0.7934569716453552,2.593993902206421,-0.2441406100988388,73.33333587646484,832281.0,1.0
529038.8949588,-750000.125,59339.0546875,-750000.125,-229646.21875,59812.2890625,59888.8203125,-750000.125,-750000.125,-0.35302734375,0.9326171875,-0.082763671875,0.8850097060203552,2.624511480331421,-0.2441406100988388,73.33333587646484,832282.0,1.0
529038.895024,-750000.125,58720.5390625,-750000.125,-229329.0,59732.1796875,59808.44140625,-750000.125,-750000.125,-0.354248046875,0.932373046875,-0.084228515625,0.7324218153953552,2.563476324081421,-0.3051757514476776,73.33333587646484,832283.0,1.0
529038.896837,-750000.125,59264.7578125,-750000.125,-229600.34375,59825.1640625,59902.6796875,-750000.125,-750000.125,-0.354248046875,0.930908203125,-0.08251953125,0.8239745497703552,2.593993902206421,-0.2441406100988388,73.33333587646484,832284.0,1.0
529038.9009983,-750000.125,59665.5703125,-750000.125,-230093.703125,60032.85546875,60111.0859375,-750000.125,-750000.125,-0.353515625,0.930908203125,-0.083984375,0.8239745497703552,2.563476324081421,-0.3051757514476776,73.33333587646484,832285.0,1.0
529038.915268,-750000.125,59767.5859375,-750000.125,-230135.1875,60133.2578125,60211.66796875,-750000.125,-750000.125,-0.3525390625,0.933837890625,-0.085205078125,0.8239745497703552,2.563476324081421,-0.2441406100988388,73.33333587646484,832286.0,1.0
529038.9153244,-750000.125,59588.6796875,-750000.125,-229676.34375,60048.5,60125.75,-750000.125,-750000.125,-0.353515625,0.932861328125,-0.083251953125,0.8850097060203552,2.502441167831421,-0.2746581733226776,73.33333587646484,832287.0,1.0
529038.9171431,-750000.125,59025.23828125,-750000.125,-229358.5,59966.87109375,60044.03125,-750000.125,-750000.125,-0.353271484375,0.9326171875,-0.085205078125,0.8239745497703552,2.563476324081421,-0.1831054538488388,73.33333587646484,832288.0,1.0
529038.9201532,-750000.125,59518.67578125,-750000.125,-229630.125,60059.5859375,60137.640625,-750000.125,-750000.125,-0.354736328125,0.9326171875,-0.083740234375,0.7629393935203552,2.593993902206421,-0.1525878757238388,73.33333587646484,832289.0,1.0
529038.9201974,-750000.125,59901.42578125,-750000.125,-230124.359375,60268.53125,60346.8515625,-750000.125,-750000.125,-0.352783203125,0.930908203125,-0.08349609375,0.8544921278953552,2.532958745956421,-0.0915527269244194,73.33333587646484,832290.0,1.0
529038.9218503,-750000.125,60003.9765625,-750000.125,-230166.5625,60369.0234375,60447.43359375,-750000.125,-750000.125,-0.35400390625,0.93017578125,-0.0849609375,0.7934569716453552,2.441406011581421,-0.0610351525247097,73.33333587646484,832291.0,1.0
529038.9356816,-750000.125,59836.875,-750000.125,-229708.359375,60284.35546875,60361.60546875,-750000.125,-750000.125,-0.353515625,0.93017578125,-0.085205078125,0.7324218153953552,2.471923589706421,0.03051757626235485,73.33333587646484,832292.0,1.0
529038.9387236,-750000.125,59321.62109375,-750000.125,-229389.078125,60201.1171875,60277.7421875,-750000.125,-750000.125,-0.35498046875,0.93115234375,-0.08349609375,0.7324218153953552,2.563476324081421,-0.03051757626235485,73.33333587646484,832293.0,1.0
529038.9387909,-750000.125,59770.625,-750000.125,-229662.21875,60295.0859375,60372.421875,-750000.125,-750000.125,-0.35498046875,0.931396484375,-0.081787109375,0.5798339247703552,2.563476324081421,-0.03051757626235485,73.33333587646484,832294.0,1.0
529038.9405533,-750000.125,60136.38671875,-750000.125,-230156.015625,60502.95703125,60581.27734375,-750000.125,-750000.125,-0.355712890625,0.932373046875,-0.08447265625,0.6103515028953552,2.563476324081421,-0.03051757626235485,73.33333587646484,832295.0,1.0
529038.944511,-750000.125,60239.47265625,-750000.125,-230198.921875,60604.5234375,60682.84375,-750000.125,-750000.125,-0.35205078125,0.932373046875,-0.08447265625,0.5798339247703552,2.532958745956421,-0.03051757626235485,73.33333587646484,832296.0,1.0
529038.9588283,-750000.125,60080.95703125,-750000.125,-229738.65625,60517.53125,60595.046875,-750000.125,-750000.125,-0.352783203125,0.931396484375,-0.085205078125,0.5798339247703552,2.410888433456421,-0.03051757626235485,73.33333587646484,832297.0,1.0
529038.9588835,-750000.125,59611.8359375,-750000.125,-229421.4375,60436.2578125,60513.5078125,-750000.125,-750000.125,-0.3544921875,0.93310546875,-0.0859375,0.6713866591453552,2.441406011581421,0.0,73.33333587646484,832298.0,1.0
529038.9612826,-750000.125,60019.35546875,-750000.125,-229694.3125,60530.046875,60607.7421875,-750000.125,-750000.125,-0.355224609375,0.93310546875,-0.084716796875,0.6408690810203552,2.532958745956421,0.0,73.33333587646484,832299.0,1.0
529038.9613329,-750000.125,60369.5625,-750000.125,-230186.328125,60735.86328125,60814.44921875,-750000.125,-750000.125,-0.35302734375,0.932861328125,-0.0859375,0.6713866591453552,2.502441167831421,0.03051757626235485,73.33333587646484,832300.0,1.0
529038.9693679,-750000.125,60471.39453125,-750000.125,-230228.34375,60836.265625,60914.9453125,-750000.125,-750000.125,-0.35205078125,0.9326171875,-0.083251953125,0.6408690810203552,2.502441167831421,-0.0610351525247097,73.33333587646484,832301.0,1.0
529038.9737593,-750000.125,60326.46875,-750000.125,-229770.765625,60752.7578125,60830.36328125,-750000.125,-750000.125,-0.3525390625,0.93212890625,-0.083984375,0.6103515028953552,2.532958745956421,0.03051757626235485,73.33333587646484,832302.0,1.0
529038.9738054,-750000.125,59905.71875,-750000.125,-229454.703125,60672.0234375,60749.00390625,-750000.125,-750000.125,-0.3525390625,0.932373046875,-0.082763671875,0.7019042372703552,2.410888433456421,-0.0610351525247097,73.33333587646484,832303.0,1.0
529038.9837397,-750000.125,60270.41015625,-750000.125,-229727.9375,60765.54296875,60843.1484375,-750000.125,-750000.125,-0.35302734375,0.931640625,-0.081787109375,0.7324218153953552,2.441406011581421,-0.2136230319738388,73.33333587646484,832304.0,1.0
529038.9837917,-750000.125,60604.87890625,-750000.125,-230220.03125,60971.71875,61050.21484375,-750000.125,-750000.125,-0.35302734375,0.93212890625,-0.083740234375,0.7629393935203552,2.502441167831421,-0.2136230319738388,73.33333587646484,832305.0,1.0
529038.9927999,-750000.125,60707.609375,-750000.125,-230262.671875,61072.8359375,61151.06640625,-750000.125,-750000.125,-0.352294921875,0.9326171875,-0.085693359375,0.7324218153953552,2.563476324081421,-0.2746581733226776,73.33333587646484,832306.0,1.0
529038.9928592,-750000.125,60570.45703125,-750000.125,-229803.84375,60987.80859375,61065.05859375,-750000.125,-750000.125,-0.351806640625,0.932861328125,-0.082275390625,0.7934569716453552,2.624511480331421,-0.2136230319738388,73.33333587646484,832307.0,1.0
529038.9949769,-750000.125,60196.91796875,-750000.125,-229487.515625,60906.80859375,60983.96484375,-750000.125,-750000.125,-0.351806640625,0.930419921875,-0.08447265625,0.7934569716453552,2.563476324081421,-0.3662109076976776,73.33333587646484,832308.0,1.0
529038.9950269,-750000.125,60521.015625,-750000.125,-229759.578125,60999.79296875,61077.75390625,-750000.125,-750000.125,-0.352783203125,0.93017578125,-0.0810546875,0.7324218153953552,2.471923589706421,-0.3356933295726776,73.33333587646484,832309.0,1.0
529039.0234836,-750000.125,60839.3046875,-750000.125,-230250.875,61205.78515625,61284.640625,-750000.125,-750000.125,-0.3515625,0.9306640625,-0.083251953125,0.7934569716453552,2.532958745956421,-0.3051757514476776,73.33333587646484,832310.0,1.0
529039.0274996,-750000.125,60942.125,-750000.125,-230292.8125,61306.7265625,61385.40234375,-750000.125,-750000.125,-0.353271484375,0.93408203125,-0.084228515625,0.8544921278953552,2.471923589706421,-0.3356933295726776,73.33333587646484,832311.0,1.0
529039.0275595,-750000.125,60813.64453125,-750000.125,-229835.484375,61222.234375,61300.01953125,-750000.125,-750000.125,-0.3544921875,0.931396484375,-0.084716796875,0.7629393935203552,2.471923589706421,-0.2441406100988388,73.33333587646484,832312.0,1.0
529039.0275824,-750000.125,60484.08984375,-750000.125,-229518.71875,61141.234375,61218.30078125,-750000.125,-750000.125,-0.353759765625,0.932373046875,-0.085205078125,0.8239745497703552,2.502441167831421,-0.2441406100988388,73.33333587646484,832313.0,1.0
529039.0276043,-750000.125,60772.51953125,-750000.125,-229793.015625,61236.09375,61314.32421875,-750000.125,-750000.125,-0.353759765625,0.93212890625,-0.08544921875,0.8544921278953552,2.563476324081421,-0.3051757514476776,73.33333587646484,832314.0,1.0
529039.0299053,-750000.125,61075.51953125,-750000.125,-230284.9375,61441.73046875,61520.9453125,-750000.125,-750000.125,-0.35400390625,0.93115234375,-0.085693359375,0.8239745497703552,2.532958745956421,-0.1525878757238388,73.33333587646484,832315.0,1.0
529039.0299618,-750000.125,61176.01171875,-750000.125,-230325.265625,61540.703125,61620.27734375,-750000.125,-750000.125,-0.35498046875,0.931640625,-0.083984375,0.7019042372703552,2.471923589706421,-0.0915527269244194,73.33333587646484,832316.0,1.0
529039.031836,-750000.125,61054.5078125,-750000.125,-229868.296875,61457.109375,61535.4296875,-750000.125,-750000.125,-0.35302734375,0.931884765625,-0.0830078125,0.5798339247703552,2.471923589706421,0.0,73.33333587646484,832317.0,1.0
529039.0343255,-750000.125,60762.50390625,-750000.125,-229552.609375,61376.375,61454.42578125,-750000.125,-750000.125,-0.353271484375,0.9306640625,-0.0849609375,0.6103515028953552,2.502441167831421,-0.03051757626235485,73.33333587646484,832318.0,1.0
529039.0368511,-750000.125,61016.59765625,-750000.125,-229823.234375,61466.5859375,61545.26171875,-750000.125,-750000.125,-0.354248046875,0.932861328125,-0.084228515625,0.6103515028953552,2.471923589706421,0.0610351525247097,73.33333587646484,832319.0,1.0
529039.0405946,-750000.125,61307.53125,-750000.125,-230316.953125,61673.203125,61752.6875,-750000.125,-750000.125,-0.352783203125,0.932373046875,-0.085205078125,0.5187987685203552,2.593993902206421,0.1220703050494194,73.33333587646484,832320.0,1.0
529039.0504185,-750000.125,61409.90234375,-750000.125,-230358.78125,61774.32421875,61853.5390625,-750000.125,-750000.125,-0.354248046875,0.930419921875,-0.083984375,0.5493163466453552,2.532958745956421,0.0,73.33333587646484,832321.0,1.0
529039.0504752,-750000.125,61290.36328125,-750000.125,-229898.15625,61687.421875,61765.29296875,-750000.125,-750000.125,-0.353271484375,0.932861328125,-0.084716796875,0.4882812201976776,2.502441167831421,0.03051757626235485,73.33333587646484,832322.0,1.0
529039.051836,-750000.125,61030.90625,-750000.125,-229581.484375,61606.1484375,61683.57421875,-750000.125,-750000.125,-0.353515625,0.933349609375,-0.0830078125,0.6408690810203552,2.532958745956421,-0.03051757626235485,73.33333587646484,832323.0,1.0
529039.0605957,-750000.125,61260.76953125,-750000.125,-229855.6875,61699.9375,61778.34765625,-750000.125,-750000.125,-0.35302734375,0.9326171875,-0.084228515625,0.6713866591453552,2.471923589706421,-0.1220703050494194,73.33333587646484,832324.0,1.0
529039.0650267,-750000.125,61540.078125,-750000.125,-230348.5,61906.109375,61985.50390625,-750000.125,-750000.125,-0.351318359375,0.931640625,-0.08447265625,0.6408690810203552,2.471923589706421,-0.03051757626235485,73.33333587646484,832325.0,1.0
529039.0650854,-750000.125,61640.9296875,-750000.125,-230389.0,62005.7109375,62084.8359375,-750000.125,-750000.125,-0.3525390625,0.930908203125,-0.08349609375,0.6713866591453552,2.502441167831421,-0.0610351525247097,73.33333587646484,832326.0,1.0
529039.0737521,-750000.125,61529.70703125,-750000.125,-229932.578125,61922.203125,62000.703125,-750000.125,-750000.125,-0.353515625,0.932373046875,-0.084228515625,0.7629393935203552,2.563476324081421,-0.0610351525247097,73.33333587646484,832327.0,1.0
529039.0738082,-750000.125,61305.5625,-750000.125,-229616.703125,61840.93359375,61919.25390625,-750000.125,-750000.125,-0.3515625,0.931884765625,-0.0849609375,0.7934569716453552,2.655029058456421,-0.1831054538488388,73.33333587646484,832328.0,1.0
529039.0755082,-750000.125,61506.640625,-750000.125,-229890.03125,61932.75390625,62011.87890625,-750000.125,-750000.125,-0.3515625,0.9306640625,-0.084716796875,0.7629393935203552,2.593993902206421,-0.2441406100988388,73.33333587646484,832329.0,1.0
529039.083104,-750000.125,61773.4296875,-750000.125,-230382.03125,62139.10546875,62218.67578125,-750000.125,-750000.125,-0.3525390625,0.931396484375,-0.081298828125,0.8239745497703552,2.593993902206421,-0.3356933295726776,73.33333587646484,832330.0,1.0
529039.0858621,-750000.125,61873.921875,-750000.125,-230421.46875,62237.8984375,62317.47265625,-750000.125,-750000.125,-0.353515625,0.930419921875,-0.080810546875,0.8239745497703552,2.593993902206421,-0.2136230319738388,73.33333587646484,832331.0,1.0
529039.0894532,-750000.125,61764.84765625,-750000.125,-229962.796875,62152.6953125,62231.37109375,-750000.125,-750000.125,-0.354248046875,0.931396484375,-0.08154296875,0.7934569716453552,2.685546636581421,-0.3051757514476776,73.33333587646484,832332.0,1.0
529039.0963429,-750000.125,61570.65625,-750000.125,-229645.953125,62071.51171875,62149.65234375,-750000.125,-750000.125,-0.355224609375,0.931396484375,-0.083251953125,0.8544921278953552,2.593993902206421,-0.4272460639476776,73.33333587646484,832333.0,1.0
529039.0963993,-750000.125,61749.46875,-750000.125,-229920.0625,62164.5859375,62243.44140625,-750000.125,-750000.125,-0.354736328125,0.9296875,-0.0859375,0.8544921278953552,2.502441167831421,-0.3356933295726776,73.33333587646484,832334.0,1.0
529039.1021582,-750000.125,62006.69140625,-750000.125,-230413.765625,62371.83203125,62452.02734375,-750000.125,-750000.125,-0.35302734375,0.931640625,-0.089111328125,0.7629393935203552,2.502441167831421,-0.3051757514476776,73.33333587646484,832335.0,1.0
529039.1111973,-750000.125,62108.97265625,-750000.125,-230454.71875,62472.234375,62552.1640625,-750000.125,-750000.125,-0.353759765625,0.9306640625,-0.08740234375,0.8239745497703552,2.563476324081421,-0.4272460639476776,73.33333587646484,832336.0,1.0
529039.1112564,-750000.125,61999.98828125,-750000.125,-229993.46875,62385.0625,62463.5625,-750000.125,-750000.125,-0.355224609375,0.930908203125,-0.086181640625,0.7324218153953552,2.624511480331421,-0.3967284858226776,73.33333587646484,832337.0,1.0
529039.1130848,-750000.125,61830.3828125,-750000.125,-229677.953125,62304.953125,62383.09765625,-750000.125,-750000.125,-0.35546875,0.93115234375,-0.08740234375,0.8850097060203552,2.563476324081421,-0.2746581733226776,73.33333587646484,832338.0,1.0
529039.1156356,-750000.125,61989.97265625,-750000.125,-229949.65625,62395.43359375,62474.55859375,-750000.125,-750000.125,-0.355712890625,0.929931640625,-0.0859375,0.8239745497703552,2.532958745956421,0.0,73.33333587646484,832339.0,1.0
529039.1294071,-750000.125,62237.00390625,-750000.125,-230443.09375,62601.96484375,62682.25,-750000.125,-750000.125,-0.35498046875,0.931640625,-0.0859375,0.7019042372703552,2.593993902206421,0.0,73.33333587646484,832340.0,1.0
529039.1323622,-750000.125,62339.64453125,-750000.125,-230486.109375,62702.81640625,62783.4609375,-750000.125,-750000.125,-0.352294921875,0.930908203125,-0.08544921875,0.7324218153953552,2.532958745956421,0.0610351525247097,73.33333587646484,832341.0,1.0
529039.1324207,-750000.125,62237.54296875,-750000.125,-230029.765625,62619.12890625,62698.79296875,-750000.125,-750000.125,-0.352783203125,0.93115234375,-0.084228515625,0.7019042372703552,2.502441167831421,0.1831054538488388,73.33333587646484,832342.0,1.0
529039.1345515,-750000.125,62088.58984375,-750000.125,-229712.90625,62537.76953125,62617.07421875,-750000.125,-750000.125,-0.353515625,0.93408203125,-0.0859375,0.6103515028953552,2.563476324081421,0.3356933295726776,73.33333587646484,832343.0,1.0
529039.137136,-750000.125,62231.1953125,-750000.125,-229985.6875,62628.609375,62708.71484375,-750000.125,-750000.125,-0.3515625,0.935302734375,-0.0859375,0.6103515028953552,2.410888433456421,0.2136230319738388,73.33333587646484,832344.0,1.0
529039.1431274,-750000.125,62468.8359375,-750000.125,-230478.5,62833.6171875,62914.53125,-750000.125,-750000.125,-0.3515625,0.93505859375,-0.086181640625,0.5187987685203552,2.380370855331421,0.2746581733226776,73.33333587646484,832345.0,1.0
529039.1525181,-750000.125,62569.6875,-750000.125,-230519.90625,62933.21875,63013.7734375,-750000.125,-750000.125,-0.35107421875,0.93310546875,-0.08447265625,0.5798339247703552,2.410888433456421,0.1525878757238388,73.33333587646484,832346.0,1.0
529039.1525717,-750000.125,62467.67578125,-750000.125,-230061.953125,62847.7421875,62927.76171875,-750000.125,-750000.125,-0.350830078125,0.932373046875,-0.08544921875,0.6103515028953552,2.349853277206421,0.0610351525247097,73.33333587646484,832347.0,1.0
529039.1548957,-750000.125,62338.03515625,-750000.125,-229746.890625,62768.44140625,62847.65625,-750000.125,-750000.125,-0.3505859375,0.931640625,-0.083740234375,0.5798339247703552,2.410888433456421,-0.0610351525247097,73.33333587646484,832348.0,1.0
529039.1549441,-750000.125,62466.69140625,-750000.125,-230017.703125,62858.02734375,62937.95703125,-750000.125,-750000.125,-0.35302734375,0.932861328125,-0.083984375,0.6408690810203552,2.471923589706421,-0.1525878757238388,73.33333587646484,832349.0,1.0
529039.165831,-750000.125,62697.8984375,-750000.125,-230509.796875,63062.58984375,63143.6796875,-750000.125,-750000.125,-0.351806640625,0.932373046875,-0.0830078125,0.7629393935203552,2.471923589706421,-0.3356933295726776,73.33333587646484,832350.0,1.0
529039.1689368,-750000.125,62800.1796875,-750000.125,-230552.0,63163.171875,63244.265625,-750000.125,-750000.125,-0.351318359375,0.93212890625,-0.08251953125,0.7629393935203552,2.502441167831421,-0.4272460639476776,73.33333587646484,832351.0,1.0
529039.1689935,-750000.125,62699.6875,-750000.125,-230092.359375,63077.33984375,63157.26953125,-750000.125,-750000.125,-0.352294921875,0.931396484375,-0.085205078125,0.8544921278953552,2.563476324081421,-0.4882812201976776,73.33333587646484,832352.0,1.0
529039.1744798,-750000.125,62590.96875,-750000.125,-229776.390625,62998.6640625,63077.87890625,-750000.125,-750000.125,-0.353271484375,0.931884765625,-0.084716796875,0.9155272841453552,2.655029058456421,-0.4577636420726776,73.33333587646484,832353.0,1.0
529039.178985,-750000.125,62703.796875,-750000.125,-230048.359375,63088.78515625,63168.625,-750000.125,-750000.125,-0.352783203125,0.931884765625,-0.083251953125,1.0070799589157104,2.563476324081421,-0.4577636420726776,73.33333587646484,832354.0,1.0
529039.1790318,-750000.125,62929.015625,-750000.125,-230541.0,63293.88671875,63374.70703125,-750000.125,-750000.125,-0.354736328125,0.931884765625,-0.0830078125,0.9155272841453552,2.624511480331421,-0.3967284858226776,73.33333587646484,832355.0,1.0
529039.1881723,-750000.125,63031.1171875,-750000.125,-230582.9375,63393.9296875,63474.75390625,-750000.125,-750000.125,-0.35546875,0.931884765625,-0.082275390625,0.9155272841453552,2.563476324081421,-0.3356933295726776,73.33333587646484,832356.0,1.0
529039.1906117,-750000.125,62931.25,-750000.125,-230123.375,63307.5625,63387.2265625,-750000.125,-750000.125,-0.35400390625,0.933349609375,-0.08203125,0.9155272841453552,2.624511480331421,-0.2746581733226776,73.33333587646484,832357.0,1.0
529039.1930693,-750000.125,62836.03125,-750000.125,-229808.75,63229.78125,63309.0859375,-750000.125,-750000.125,-0.3544921875,0.932373046875,-0.086181640625,0.9155272841453552,2.685546636581421,-0.2136230319738388,73.33333587646484,832358.0,1.0
529039.1972324,-750000.125,62937.8671875,-750000.125,-230079.21875,63318.828125,63398.84765625,-750000.125,-750000.125,-0.35400390625,0.93212890625,-0.083251953125,0.8239745497703552,2.624511480331421,-0.1220703050494194,73.33333587646484,832359.0,1.0
529039.209035,-750000.125,63158.5234375,-750000.125,-230571.578125,63523.48046875,63603.76953125,-750000.125,-750000.125,-0.35302734375,0.93310546875,-0.08447265625,0.7629393935203552,2.624511480331421,-0.1220703050494194,73.33333587646484,832360.0,1.0
529039.2090914,-750000.125,63261.51953125,-750000.125,-230615.125,63624.33203125,63704.80078125,-750000.125,-750000.125,-0.35498046875,0.931396484375,-0.0859375,0.7324218153953552,2.471923589706421,0.0,73.33333587646484,832361.0,1.0
529039.2107802,-750000.125,63161.65234375,-750000.125,-230156.015625,63537.51953125,63617.62890625,-750000.125,-750000.125,-0.355224609375,0.932373046875,-0.083984375,0.6408690810203552,2.349853277206421,-0.0610351525247097,73.33333587646484,832362.0,1.0
529039.2144733,-750000.125,63070.546875,-750000.125,-229840.9375,63458.66015625,63538.32421875,-750000.125,-750000.125,-0.353759765625,0.9326171875,-0.08447265625,0.5798339247703552,2.349853277206421,0.0,73.33333587646484,832363.0,1.0
529039.2187022,-750000.125,63169.609375,-750000.125,-230112.109375,63548.16015625,63628.625,-750000.125,-750000.125,-0.353515625,0.93408203125,-0.0869140625,0.4882812201976776,2.380370855331421,0.2136230319738388,73.33333587646484,832364.0,1.0
529039.2187768,-750000.125,63388.12109375,-750000.125,-230604.203125,63752.2734375,63833.8125,-750000.125,-750000.125,-0.35400390625,0.933349609375,-0.08642578125,0.4577636420726776,2.410888433456421,0.2136230319738388,73.33333587646484,832365.0,1.0
529039.2297376,-750000.125,63488.61328125,-750000.125,-230646.328125,63850.98046875,63932.16015625,-750000.125,-750000.125,-0.35302734375,0.932861328125,-0.08251953125,0.4882812201976776,2.410888433456421,0.3051757514476776,73.33333587646484,832366.0,1.0
529039.2327599,-750000.125,63389.37109375,-750000.125,-230187.390625,63764.703125,63844.6328125,-750000.125,-750000.125,-0.3525390625,0.93212890625,-0.082763671875,0.5187987685203552,2.380370855331421,0.2136230319738388,73.33333587646484,832367.0,1.0
529039.2328232,-750000.125,63300.41015625,-750000.125,-229874.296875,63687.72265625,63767.20703125,-750000.125,-750000.125,-0.350341796875,0.932373046875,-0.080078125,0.5187987685203552,2.349853277206421,0.0915527269244194,73.33333587646484,832368.0,1.0
529039.2344369,-750000.125,63398.58203125,-750000.125,-230145.109375,63776.68359375,63857.1484375,-750000.125,-750000.125,-0.3515625,0.932373046875,-0.08203125,0.4882812201976776,2.349853277206421,0.0610351525247097,73.33333587646484,832369.0,1.0
529039.2434696,-750000.125,63615.83984375,-750000.125,-230636.84375,63980.08203125,64061.35546875,-750000.125,-750000.125,-0.352783203125,0.9306640625,-0.081298828125,0.6713866591453552,2.349853277206421,0.03051757626235485,73.33333587646484,832370.0,1.0
529039.2476855,-750000.125,63718.48046875,-750000.125,-230681.28125,64081.0234375,64162.20703125,-750000.125,-750000.125,-0.35205078125,0.929443359375,-0.079833984375,0.6408690810203552,2.471923589706421,-0.0915527269244194,73.33333587646484,832371.0,1.0
529039.2477522,-750000.125,63620.578125,-750000.125,-230223.6875,63995.8203125,64076.28515625,-750000.125,-750000.125,-0.351318359375,0.9306640625,-0.078857421875,0.8239745497703552,2.441406011581421,-0.1831054538488388,73.33333587646484,832372.0,1.0
529039.2505884,-750000.125,63528.7578125,-750000.125,-229905.765625,63914.99609375,63995.55078125,-750000.125,-750000.125,-0.3515625,0.9306640625,-0.080322265625,0.9155272841453552,2.563476324081421,-0.3356933295726776,73.33333587646484,832373.0,1.0
529039.2597351,-750000.125,63625.49609375,-750000.125,-230174.875,64003.23828125,64084.33203125,-750000.125,-750000.125,-0.352783203125,0.930419921875,-0.08251953125,0.9460448622703552,2.655029058456421,-0.4577636420726776,73.33333587646484,832374.0,1.0
529039.2662501,-750000.125,63845.4375,-750000.125,-230669.296875,64209.32421875,64291.21875,-750000.125,-750000.125,-0.353759765625,0.930419921875,-0.083740234375,0.9155272841453552,2.624511480331421,-0.4577636420726776,73.33333587646484,832375.0,1.0
529039.2663021,-750000.125,63948.703125,-750000.125,-230713.46875,64311.15625,64392.51953125,-750000.125,-750000.125,-0.354736328125,0.9306640625,-0.08447265625,0.9765624403953552,2.746581792831421,-0.4882812201976776,73.33333587646484,832376.0,1.0
529039.2680268,-750000.125,63850.0859375,-750000.125,-230254.546875,64225.328125,64305.703125,-750000.125,-750000.125,-0.35595703125,0.93115234375,-0.0869140625,0.9155272841453552,2.746581792831421,-0.4882812201976776,73.33333587646484,832377.0,1.0
529039.2717833,-750000.125,63760.140625,-750000.125,-229937.953125,64146.46875,64226.7578125,-750000.125,-750000.125,-0.357177734375,0.9326171875,-0.086181640625,1.0375975370407104,2.746581792831421,-0.5798339247703552,73.33333587646484,832378.0,1.0
529039.2860233,-750000.125,63857.328125,-750000.125,-230207.328125,64234.71484375,64316.07421875,-750000.125,-750000.125,-0.357177734375,0.932373046875,-0.08544921875,0.9765624403953552,2.716064214706421,-0.4882812201976776,73.33333587646484,832379.0,1.0
529039.2860846,-750000.125,64074.49609375,-750000.125,-230698.796875,64438.02734375,64520.37109375,-750000.125,-750000.125,-0.35595703125,0.9326171875,-0.086669921875,0.8850097060203552,2.624511480331421,-0.3967284858226776,73.33333587646484,832380.0,1.0
529039.2933272,-750000.125,64177.13671875,-750000.125,-230742.875,64539.234375,64621.30859375,-750000.125,-750000.125,-0.355712890625,0.933837890625,-0.088134765625,0.7629393935203552,2.593993902206421,-0.2136230319738388,73.33333587646484,832381.0,1.0
529039.2956612,-750000.125,64079.50390625,-750000.125,-230285.921875,64454.296875,64535.2109375,-750000.125,-750000.125,-0.3544921875,0.934326171875,-0.0849609375,0.6103515028953552,2.502441167831421,-0.0915527269244194,73.33333587646484,832382.0,1.0
529039.2983978,-750000.125,63988.21875,-750000.125,-229968.34375,64373.83203125,64454.20703125,-750000.125,-750000.125,-0.3525390625,0.935302734375,-0.08544921875,0.6408690810203552,2.502441167831421,0.0915527269244194,73.33333587646484,832383.0,1.0
529039.3007395,-750000.125,64084.6015625,-750000.125,-230237.90625,64461.8984375,64542.98828125,-750000.125,-750000.125,-0.353515625,0.93212890625,-0.08349609375,0.5493163466453552,2.380370855331421,0.1525878757238388,73.33333587646484,832384.0,1.0
529039.3059365,-750000.125,64300.6953125,-750000.125,-230730.0,64664.13671875,64746.66015625,-750000.125,-750000.125,-0.351806640625,0.93310546875,-0.08251953125,0.4882812201976776,2.410888433456421,0.2441406100988388,73.33333587646484,832385.0,1.0
529039.3081076,-750000.125,64403.515625,-750000.125,-230775.328125,64765.79296875,64847.51171875,-750000.125,-750000.125,-0.35400390625,0.932861328125,-0.083740234375,0.3967284858226776,2.471923589706421,0.0915527269244194,73.33333587646484,832386.0,1.0
529039.3113026,-750000.125,64305.61328125,-750000.125,-230319.0,64680.85546875,64761.0546875,-750000.125,-750000.125,-0.354248046875,0.93212890625,-0.082763671875,0.4272460639476776,2.349853277206421,0.0915527269244194,73.33333587646484,832387.0,1.0
529039.3113537,-750000.125,64216.56640625,-750000.125,-230004.375,64602.265625,64682.1953125,-750000.125,-750000.125,-0.352783203125,0.931640625,-0.083251953125,0.4272460639476776,2.227782964706421,0.0610351525247097,73.33333587646484,832388.0,1.0
529039.3250806,-750000.125,64311.9609375,-750000.125,-230272.875,64689.34765625,64770.62109375,-750000.125,-750000.125,-0.35107421875,0.929931640625,-0.08251953125,0.3662109076976776,2.349853277206421,0.1220703050494194,73.33333587646484,832389.0,1.0
529039.3251389,-750000.125,64528.59375,-750000.125,-230764.703125,64892.3046875,64974.82421875,-750000.125,-750000.125,-0.351806640625,0.930908203125,-0.084228515625,0.4882812201976776,2.319335699081421,0.1220703050494194,73.33333587646484,832390.0,1.0
529039.3274572,-750000.125,64632.3984375,-750000.125,-230811.28125,64994.31640625,65076.75,-750000.125,-750000.125,-0.35009765625,0.931884765625,-0.0810546875,0.5187987685203552,2.471923589706421,0.03051757626235485,73.33333587646484,832391.0,1.0
529039.3275289,-750000.125,64534.05078125,-750000.125,-230353.875,64908.0390625,64989.7578125,-750000.125,-750000.125,-0.35205078125,0.932373046875,-0.0830078125,0.6408690810203552,2.380370855331421,-0.03051757626235485,73.33333587646484,832392.0,1.0
529039.3306972,-750000.125,64443.30078125,-750000.125,-230036.296875,64828.19921875,64909.37890625,-750000.125,-750000.125,-0.3525390625,0.930419921875,-0.0849609375,0.7324218153953552,2.471923589706421,-0.1525878757238388,73.33333587646484,832393.0,1.0
529039.3393648,-750000.125,64540.12890625,-750000.125,-230305.5,64916.890625,64998.875,-750000.125,-750000.125,-0.353515625,0.9326171875,-0.08349609375,0.9155272841453552,2.563476324081421,-0.3356933295726776,73.33333587646484,832394.0,1.0
529039.3431804,-750000.125,64755.51171875,-750000.125,-230795.984375,65118.4140625,65201.29296875,-750000.125,-750000.125,-0.353759765625,0.931640625,-0.083251953125,0.9460448622703552,2.563476324081421,-0.3662109076976776,73.33333587646484,832395.0,1.0
529039.3528497,-750000.125,64856.00390625,-750000.125,-230839.703125,65217.83203125,65299.8203125,-750000.125,-750000.125,-0.35302734375,0.93212890625,-0.08447265625,1.0375975370407104,2.655029058456421,-0.4272460639476776,73.33333587646484,832396.0,1.0
529039.3529077,-750000.125,64758.28125,-750000.125,-230383.015625,65133.07421875,65213.98828125,-750000.125,-750000.125,-0.3515625,0.930419921875,-0.08349609375,0.9765624403953552,2.624511480331421,-0.4577636420726776,73.33333587646484,832397.0,1.0
529039.3550393,-750000.125,64666.99609375,-750000.125,-230064.1875,65052.609375,65133.07421875,-750000.125,-750000.125,-0.352783203125,0.932861328125,-0.081787109375,0.9765624403953552,2.624511480331421,-0.6103515028953552,73.33333587646484,832398.0,1.0
529039.3550876,-750000.125,64763.64453125,-750000.125,-230333.578125,65140.9453125,65222.484375,-750000.125,-750000.125,-0.35595703125,0.933349609375,-0.08447265625,0.9765624403953552,2.655029058456421,-0.5187987685203552,73.33333587646484,832399.0,1.0
529039.3730952,-750000.125,64981.26171875,-750000.125,-230826.03125,65344.5234375,65427.2265625,-750000.125,-750000.125,-0.355712890625,0.931396484375,-0.08642578125,0.9765624403953552,2.655029058456421,-0.3356933295726776,73.33333587646484,832400.0,1.0
529039.3780265,-750000.125,65083.0078125,-750000.125,-230871.265625,65444.92578125,65527.359375,-750000.125,-750000.125,-0.35400390625,0.932373046875,-0.087646484375,0.9460448622703552,2.593993902206421,-0.3662109076976776,73.33333587646484,832401.0,1.0
529039.3780825,-750000.125,64984.125,-750000.125,-230412.609375,65358.47265625,65440.1875,-750000.125,-750000.125,-0.35498046875,0.93310546875,-0.0869140625,0.8239745497703552,2.502441167831421,-0.3051757514476776,73.33333587646484,832402.0,1.0
529039.3781064,-750000.125,64892.5703125,-750000.125,-230093.421875,65277.6484375,65359.0078125,-750000.125,-750000.125,-0.354248046875,0.931884765625,-0.086181640625,0.7324218153953552,2.532958745956421,-0.1525878757238388,73.33333587646484,832403.0,1.0
529039.381579,-750000.125,64988.50390625,-750000.125,-230362.0,65365.265625,65447.4296875,-750000.125,-750000.125,-0.35546875,0.93212890625,-0.087158203125,0.7019042372703552,2.441406011581421,-0.1525878757238388,73.33333587646484,832404.0,1.0
529039.3816358,-750000.125,65208.89453125,-750000.125,-230858.3125,65571.6171875,65654.9453125,-750000.125,-750000.125,-0.354736328125,0.932373046875,-0.086181640625,0.6103515028953552,2.441406011581421,-0.0915527269244194,73.33333587646484,832405.0,1.0
529039.3831141,-750000.125,65311.62109375,-750000.125,-230904.4375,65673.0078125,65755.9765625,-750000.125,-750000.125,-0.357177734375,0.933349609375,-0.0859375,0.5798339247703552,2.532958745956421,-0.1220703050494194,73.33333587646484,832406.0,1.0
529039.4006537,-750000.125,65214.2578125,-750000.125,-230448.28125,65588.421875,65670.3203125,-750000.125,-750000.125,-0.356201171875,0.931640625,-0.084228515625,0.4882812201976776,2.410888433456421,0.0,73.33333587646484,832407.0,1.0
529039.4057161,-750000.125,65120.11328125,-750000.125,-230127.484375,65504.7421875,65586.1875,-750000.125,-750000.125,-0.353759765625,0.93212890625,-0.085205078125,0.4882812201976776,2.349853277206421,0.2136230319738388,73.33333587646484,832408.0,1.0
529039.4057744,-750000.125,65213.09375,-750000.125,-230394.28125,65590.125,65672.2890625,-750000.125,-750000.125,-0.3515625,0.931396484375,-0.0859375,0.4577636420726776,2.441406011581421,0.3051757514476776,73.33333587646484,832409.0,1.0
529039.4057969,-750000.125,65431.96484375,-750000.125,-230889.59375,65795.3125,65878.28125,-750000.125,-750000.125,-0.3525390625,0.928955078125,-0.083984375,0.4882812201976776,2.410888433456421,0.3662109076976776,73.33333587646484,832410.0,1.0
529039.408647,-750000.125,65533.26171875,-750000.125,-230935.1875,65894.8203125,65977.796875,-750000.125,-750000.125,-0.35302734375,0.930908203125,-0.086669921875,0.5493163466453552,2.471923589706421,0.3356933295726776,73.33333587646484,832411.0,1.0
529039.4087004,-750000.125,65436.25390625,-750000.125,-230480.203125,65810.421875,65892.40625,-750000.125,-750000.125,-0.353271484375,0.930908203125,-0.085693359375,0.5798339247703552,2.532958745956421,0.2136230319738388,73.33333587646484,832412.0,1.0
529039.4145009,-750000.125,65345.328125,-750000.125,-230162.1875,65729.953125,65811.40625,-750000.125,-750000.125,-0.353515625,0.93310546875,-0.08544921875,0.6408690810203552,2.441406011581421,0.0610351525247097,73.33333587646484,832413.0,1.0
529039.4238996,-750000.125,65440.3671875,-750000.125,-230429.515625,65816.7734375,65898.9375,-750000.125,-750000.125,-0.35009765625,0.93115234375,-0.083984375,0.7324218153953552,2.410888433456421,-0.0915527269244194,73.33333587646484,832414.0,1.0
529039.4239517,-750000.125,65658.34375,-750000.125,-230923.390625,66021.2421875,66104.5703125,-750000.125,-750000.125,-0.3505859375,0.931396484375,-0.0830078125,0.7324218153953552,2.471923589706421,-0.1525878757238388,73.33333587646484,832415.0,1.0
529039.4327,-750000.125,65760.0859375,-750000.125,-230969.609375,66121.6484375,66204.6171875,-750000.125,-750000.125,-0.352294921875,0.930419921875,-0.0849609375,0.8850097060203552,2.532958745956421,-0.3356933295726776,73.33333587646484,832416.0,1.0
529039.4327566,-750000.125,65662.8125,-750000.125,-230513.640625,66037.0703125,66119.0546875,-750000.125,-750000.125,-0.351318359375,0.9296875,-0.083984375,0.9460448622703552,2.655029058456421,-0.4882812201976776,73.33333587646484,832417.0,1.0
529039.441207,-750000.125,65572.78125,-750000.125,-230195.4375,65957.046875,66038.9453125,-750000.125,-750000.125,-0.35205078125,0.929931640625,-0.08349609375,1.0070799589157104,2.685546636581421,-0.5798339247703552,73.33333587646484,832418.0,1.0
529039.4412586,-750000.125,65669.25,-750000.125,-230464.375,66046.0078125,66128.53125,-750000.125,-750000.125,-0.35400390625,0.9296875,-0.08349609375,1.0375975370407104,2.593993902206421,-0.6103515028953552,73.33333587646484,832419.0,1.0
529039.4701954,-750000.125,65887.40625,-750000.125,-230958.0,66250.21875,66333.6328125,-750000.125,-750000.125,-0.354736328125,0.930908203125,-0.081298828125,1.0375975370407104,2.624511480331421,-0.5493163466453552,73.33333587646484,832420.0,1.0
529039.4702531,-750000.125,65988.078125,-750000.125,-231002.25,66349.28125,66432.3359375,-750000.125,-750000.125,-0.357177734375,0.932373046875,-0.083984375,0.9460448622703552,2.624511480331421,-0.5493163466453552,73.33333587646484,832421.0,1.0
529039.4702731,-750000.125,65889.7265625,-750000.125,-230544.75,66263.1796875,66345.34375,-750000.125,-750000.125,-0.3564453125,0.93359375,-0.0830078125,0.8850097060203552,2.624511480331421,-0.3662109076976776,73.33333587646484,832422.0,1.0
529039.4702918,-750000.125,65799.78125,-750000.125,-230226.28125,66183.6953125,66265.59375,-750000.125,-750000.125,-0.35693359375,0.931396484375,-0.083251953125,0.8239745497703552,2.563476324081421,-0.3356933295726776,73.33333587646484,832423.0,1.0
529039.4703117,-750000.125,65895.71875,-750000.125,-230494.6875,66271.8515625,66354.4609375,-750000.125,-750000.125,-0.35546875,0.931884765625,-0.083740234375,0.7629393935203552,2.441406011581421,-0.3051757514476776,73.33333587646484,832424.0,1.0
529039.4718392,-750000.125,66113.515625,-750000.125,-230989.109375,66475.609375,66559.7421875,-750000.125,-750000.125,-0.35546875,0.931640625,-0.08447265625,0.6713866591453552,2.410888433456421,-0.0915527269244194,73.33333587646484,832425.0,1.0
529039.4744156,-750000.125,66216.328125,-750000.125,-231036.5,66577.0,66660.5078125,-750000.125,-750000.125,-0.357177734375,0.931640625,-0.083740234375,0.6103515028953552,2.502441167831421,0.03051757626235485,73.33333587646484,832426.0,1.0
529039.4770681,-750000.125,66116.5546875,-750000.125,-230578.28125,66489.46875,66571.9921875,-750000.125,-750000.125,-0.3564453125,0.931396484375,-0.08251953125,0.5493163466453552,2.288818120956421,0.1220703050494194,73.33333587646484,832427.0,1.0
529039.4796585,-750000.125,66023.125,-750000.125,-230257.9375,66406.765625,66489.109375,-750000.125,-750000.125,-0.356201171875,0.930908203125,-0.08154296875,0.5493163466453552,2.441406011581421,0.1525878757238388,73.33333587646484,832428.0,1.0
529039.4818001,-750000.125,66116.5546875,-750000.125,-230524.453125,66492.2421875,66575.65625,-750000.125,-750000.125,-0.351806640625,0.931396484375,-0.08447265625,0.4577636420726776,2.410888433456421,0.2136230319738388,73.33333587646484,832429.0,1.0
529039.4844483,-750000.125,66334.703125,-750000.125,-231019.5,66697.0703125,66781.203125,-750000.125,-750000.125,-0.3525390625,0.931396484375,-0.084716796875,0.4272460639476776,2.410888433456421,0.1831054538488388,73.33333587646484,832430.0,1.0
529039.4869666,-750000.125,66437.1640625,-750000.125,-231067.15625,66797.5625,66881.609375,-750000.125,-750000.125,-0.35205078125,0.928955078125,-0.082275390625,0.4882812201976776,2.410888433456421,0.0915527269244194,73.33333587646484,832431.0,1.0
529039.491466,-750000.125,66338.4609375,-750000.125,-230610.46875,66711.5546875,66794.5234375,-750000.125,-750000.125,-0.3515625,0.93115234375,-0.082763671875,0.5493163466453552,2.471923589706421,0.03051757626235485,73.33333587646484,832432.0,1.0
529039.4915366,-750000.125,66247.53125,-750000.125,-230292.625,66631.265625,66713.703125,-750000.125,-750000.125,-0.35205078125,0.930419921875,-0.08349609375,0.5798339247703552,2.502441167831421,0.0915527269244194,73.33333587646484,832433.0,1.0
529039.5005965,-750000.125,66339.7109375,-750000.125,-230557.71875,66715.84375,66799.0,-750000.125,-750000.125,-0.352294921875,0.93212890625,-0.084716796875,0.6713866591453552,2.563476324081421,0.0,73.33333587646484,832434.0,1.0
529039.5049101,-750000.125,66556.078125,-750000.125,-231050.265625,66918.265625,67002.6640625,-750000.125,-750000.125,-0.35205078125,0.932373046875,-0.083984375,0.7324218153953552,2.563476324081421,-0.0915527269244194,73.33333587646484,832435.0,1.0
529039.5049558,-750000.125,66658.984375,-750000.125,-231098.71875,67019.3828125,67103.875,-750000.125,-750000.125,-0.3515625,0.933837890625,-0.083740234375,0.7629393935203552,2.502441167831421,-0.1525878757238388,73.33333587646484,832436.0,1.0
529039.5131618,-750000.125,66559.7421875,-750000.125,-230641.578125,66932.75,67015.8984375,-750000.125,-750000.125,-0.3525390625,0.93212890625,-0.08251953125,0.7934569716453552,2.532958745956421,-0.1525878757238388,73.33333587646484,832437.0,1.0
529039.5161641,-750000.125,66468.0078125,-750000.125,-230321.953125,66851.2109375,66933.640625,-750000.125,-750000.125,-0.352294921875,0.931884765625,-0.083251953125,0.8239745497703552,2.502441167831421,-0.1220703050494194,73.33333587646484,832438.0,1.0
529039.5162121,-750000.125,66562.875,-750000.125,-230589.90625,66938.828125,67021.796875,-750000.125,-750000.125,-0.351318359375,0.93017578125,-0.083251953125,0.7629393935203552,2.593993902206421,-0.2746581733226776,73.33333587646484,832439.0,1.0
529039.5181035,-750000.125,66779.0546875,-750000.125,-231081.90625,67141.0703125,67225.203125,-750000.125,-750000.125,-0.352294921875,0.931640625,-0.085205078125,0.9155272841453552,2.593993902206421,-0.4272460639476776,73.33333587646484,832440.0,1.0
529039.531871,-750000.125,66881.609375,-750000.125,-231129.203125,67241.5625,67325.875,-750000.125,-750000.125,-0.354248046875,0.930908203125,-0.085205078125,0.8544921278953552,2.624511480331421,-0.4882812201976776,73.33333587646484,832441.0,1.0
529039.5351619,-750000.125,66782.6328125,-750000.125,-230672.609375,67155.640625,67239.1484375,-750000.125,-750000.125,-0.353271484375,0.93017578125,-0.084716796875,0.9765624403953552,2.593993902206421,-0.4577636420726776,73.33333587646484,832442.0,1.0
529039.5352068,-750000.125,66692.78125,-750000.125,-230354.3125,67076.0703125,67159.21875,-750000.125,-750000.125,-0.3544921875,0.930908203125,-0.0849609375,0.9460448622703552,2.532958745956421,-0.4577636420726776,73.33333587646484,832443.0,1.0
529039.5369279,-750000.125,66786.8359375,-750000.125,-230620.21875,67162.6171875,67246.390625,-750000.125,-750000.125,-0.355224609375,0.930908203125,-0.08544921875,0.9765624403953552,2.441406011581421,-0.4272460639476776,73.33333587646484,832444.0,1.0
529039.5397472,-750000.125,67003.2890625,-750000.125,-231112.671875,67365.296875,67449.96875,-750000.125,-750000.125,-0.3544921875,0.93115234375,-0.0849609375,0.8544921278953552,2.410888433456421,-0.4272460639476776,73.33333587646484,832445.0,1.0
529039.5481142,-750000.125,67105.125,-750000.125,-231159.421875,67465.078125,67549.296875,-750000.125,-750000.125,-0.35498046875,0.931640625,-0.084716796875,0.8239745497703552,2.441406011581421,-0.2746581733226776,73.33333587646484,832446.0,1.0
529039.5514616,-750000.125,67005.9765625,-750000.125,-230702.203125,67378.796875,67461.9453125,-750000.125,-750000.125,-0.35546875,0.929443359375,-0.08349609375,0.8544921278953552,2.532958745956421,-0.3051757514476776,73.33333587646484,832447.0,1.0
529039.5515325,-750000.125,66915.1328125,-750000.125,-230383.375,67298.78125,67381.3046875,-750000.125,-750000.125,-0.355712890625,0.931396484375,-0.082763671875,0.7629393935203552,2.532958745956421,-0.0915527269244194,73.33333587646484,832448.0,1.0
529039.5570129,-750000.125,67008.390625,-750000.125,-230649.1875,67384.1640625,67467.8515625,-750000.125,-750000.125,-0.356201171875,0.9326171875,-0.085205078125,0.6408690810203552,2.502441167831421,0.1525878757238388,73.33333587646484,832449.0,1.0
529039.5661811,-750000.125,67224.21875,-750000.125,-231142.625,67586.1328125,67671.0703125,-750000.125,-750000.125,-0.35546875,0.934814453125,-0.08447265625,0.6408690810203552,2.380370855331421,0.1525878757238388,73.33333587646484,832450.0,1.0
529039.5662327,-750000.125,67327.75,-750000.125,-231192.515625,67687.609375,67772.3671875,-750000.125,-750000.125,-0.35400390625,0.935546875,-0.083984375,0.4882812201976776,2.441406011581421,0.2136230319738388,73.33333587646484,832451.0,1.0
529039.5681224,-750000.125,67230.1171875,-750000.125,-230738.140625,67602.9453125,67686.453125,-750000.125,-750000.125,-0.353759765625,0.93359375,-0.08251953125,0.5493163466453552,2.380370855331421,0.3051757514476776,73.33333587646484,832452.0,1.0
529039.5744589,-750000.125,67137.3125,-750000.125,-230417.53125,67520.8671875,67604.015625,-750000.125,-750000.125,-0.35546875,0.934814453125,-0.08349609375,0.5187987685203552,2.319335699081421,0.2136230319738388,73.33333587646484,832453.0,1.0
529039.5787867,-750000.125,67228.59375,-750000.125,-230682.0,67604.28125,67688.328125,-750000.125,-750000.125,-0.353271484375,0.93408203125,-0.085693359375,0.4577636420726776,2.319335699081421,0.2136230319738388,73.33333587646484,832454.0,1.0
529039.5788412,-750000.125,67443.7109375,-750000.125,-231175.15625,67805.2734375,67890.1171875,-750000.125,-750000.125,-0.352783203125,0.93359375,-0.08544921875,0.5493163466453552,2.410888433456421,0.1525878757238388,73.33333587646484,832455.0,1.0
529039.5805747,-750000.125,67546.3515625,-750000.125,-231224.25,67906.65625,67991.5078125,-750000.125,-750000.125,-0.3525390625,0.93310546875,-0.083740234375,0.4882812201976776,2.349853277206421,0.0915527269244194,73.33333587646484,832456.0,1.0
529039.5942702,-750000.125,67447.9140625,-750000.125,-230767.828125,67820.5625,67904.2421875,-750000.125,-750000.125,-0.35107421875,0.93359375,-0.08203125,0.5187987685203552,2.471923589706421,-0.0610351525247097,73.33333587646484,832457.0,1.0
529039.5966249,-750000.125,67356.1796875,-750000.125,-230448.375,67739.375,67822.3515625,-750000.125,-750000.125,-0.350830078125,0.931884765625,-0.082275390625,0.7324218153953552,2.502441167831421,-0.1525878757238388,73.33333587646484,832458.0,1.0
529039.6036974,-750000.125,67448.71875,-750000.125,-230713.46875,67824.5859375,67908.0859375,-750000.125,-750000.125,-0.3525390625,0.9306640625,-0.080078125,0.7324218153953552,2.532958745956421,-0.2441406100988388,73.33333587646484,832459.0,1.0
529039.6037557,-750000.125,67667.3203125,-750000.125,-231208.421875,68028.96875,68113.546875,-750000.125,-750000.125,-0.3515625,0.929443359375,-0.0771484375,0.8850097060203552,2.655029058456421,-0.3051757514476776,73.33333587646484,832460.0,1.0
529039.6056654,-750000.125,67769.5078125,-750000.125,-231256.53125,68129.4609375,68214.21875,-750000.125,-750000.125,-0.353759765625,0.93017578125,-0.08349609375,0.9155272841453552,2.685546636581421,-0.3356933295726776,73.33333587646484,832461.0,1.0
529039.6082249,-750000.125,67672.5,-750000.125,-230801.625,68045.2421875,68128.8359375,-750000.125,-750000.125,-0.35498046875,0.931396484375,-0.08349609375,0.9460448622703552,2.655029058456421,-0.4272460639476776,73.33333587646484,832462.0,1.0
